{NUMBER OF COLUMNS}  4 
*
*     psin         Jsat          Ne       Te
*  ?     (Amps)   (eV)
{DATA LIST} 
   0.87940   2.5049E+02  4.3752E+16  13.3140
   0.88257   3.1729E+02  6.5377E+16   9.5671
   0.97438   6.9650E+02  1.1474E+17  14.9683
   0.97623   2.7030E+02  6.6026E+16   6.8073
   0.98805   1.4023E+03  3.2113E+17   9.3864
   0.98912   1.4910E+03  3.4913E+17   8.4741
   0.98993   1.6396E+03  3.9037E+17   8.0596
   0.99170   1.8561E+03  4.6419E+17   6.9166
   0.99492   2.4984E+03  7.0031E+17   6.5044
   0.99601   3.2219E+03  8.4040E+17   6.5109
   0.99682   3.8102E+03  1.5553E+18   5.8950
   0.99860   4.7479E+03  1.8065E+18   5.3268
   1.00191   5.9300E+03  2.1721E+18   5.1849
   1.00300   7.5269E+03  2.7951E+18   4.8783
   1.00382   9.5627E+03  3.2687E+18   5.1263
   1.00561   1.1644E+04  4.0676E+18   4.8001
   1.00867   1.3966E+04  4.7300E+18   4.8306
   1.00978   1.5848E+04  5.2831E+18   4.9504
   1.01060   1.7540E+04  5.8893E+18   4.2518
   1.01240   1.9293E+04  5.8625E+18   4.7355
   1.01556   2.1363E+04  6.3575E+18   4.7738
   1.01668   2.3317E+04  6.7529E+18   5.0312
   1.01750   2.5818E+04  6.7202E+18   6.6884
   1.01931   2.6477E+04  6.8094E+18   6.8790
   1.02245   2.7418E+04  6.4137E+18   8.8295
   1.02357   2.7599E+04  6.1048E+18  10.1016
   1.02441   2.8291E+04  5.8065E+18  11.5528
   1.02623   2.8977E+04  5.5723E+18  12.6683
   1.02934   3.0030E+04  5.4597E+18  13.6082
   1.03047   3.0591E+04  5.3402E+18  14.2931
   1.03131   2.9838E+04  4.9872E+18  14.9177
   1.03314   2.8557E+04  4.7919E+18  14.9336
   1.03624   2.7882E+04  4.5981E+18  15.2044
   1.03738   2.7023E+04  4.6771E+18  13.8137
   1.03823   2.7149E+04  4.8126E+18  13.1551
   1.04007   2.6552E+04  4.8590E+18  12.3071
   1.04314   2.5461E+04  4.6792E+18  12.2869
   1.04429   2.3966E+04  4.5181E+18  11.7255
   1.04514   2.3063E+04  4.2919E+18  12.1850
   1.04699   2.2529E+04  4.3045E+18  11.6412
   1.05003   2.1411E+04  4.2263E+18  10.8118
   1.05120   2.1341E+04  4.2330E+18  10.6903
   1.05205   2.1263E+04  4.0963E+18  11.3050
   1.05392   2.0141E+04  3.8630E+18  11.3893
   1.05694   1.9140E+04  3.6324E+18  11.5649
   1.05811   1.8621E+04  3.5957E+18  11.1225
   1.05897   1.7790E+04  3.3746E+18  11.4063
   1.06085   1.6401E+04  3.2765E+18  10.3654
   1.06384   1.5867E+04  3.1065E+18  10.6208
   1.06502   1.5498E+04  3.0524E+18  10.4923
   1.06589   1.4904E+04  2.9257E+18  10.5701
   1.06778   1.4034E+04  2.8285E+18  10.0763
   1.07075   1.3486E+04  2.7558E+18   9.8016
   1.07194   1.2985E+04  2.7298E+18   9.2738
   1.07281   1.2442E+04  2.6557E+18   9.0023
   1.07471   1.2435E+04  2.7151E+18   8.5790
   1.07765   1.1404E+04  2.5082E+18   8.2804
   1.07885   1.1290E+04  2.5167E+18   8.0809
   1.07972   1.0827E+04  2.4707E+18   7.7430
   1.08164   1.0786E+04  2.5215E+18   7.3466
   1.08455   1.1056E+04  2.5215E+18   7.7704
   1.08576   1.0765E+04  2.5129E+18   7.4090
   1.08665   1.0919E+04  2.5299E+18   7.5149
   1.08857   1.0598E+04  2.4696E+18   7.4114
   1.09145   1.0271E+04  2.3919E+18   7.4015
   1.09267   1.0566E+04  2.4436E+18   7.5956
   1.09356   9.6688E+03  2.2346E+18   7.7019
   1.09550   9.8117E+03  2.3099E+18   7.5574
   1.09835   1.0156E+04  2.3370E+18   7.8211
   1.09958   9.8617E+03  2.3436E+18   7.3205
   1.10047   1.0478E+04  2.4352E+18   7.6118
   1.10242   1.0353E+04  2.3986E+18   7.6572
   1.10523   1.0479E+04  2.4108E+18   7.7927
   1.10647   1.0661E+04  2.4275E+18   7.9706
   1.10737   1.0629E+04  2.4644E+18   7.7097
   1.10934   1.0547E+04  2.4645E+18   7.4441
   1.11212   1.0393E+04  2.4022E+18   7.5153
   1.11337   9.0131E+03  2.1184E+18   7.6448
   1.11428   8.6864E+03  1.9638E+18   8.9555
   1.11625   8.1845E+03  1.8639E+18   8.8703
   1.11900   7.6001E+03  1.7843E+18   8.4465
   1.12026   7.1289E+03  1.6873E+18   8.3339
   1.12117   7.0458E+03  1.6706E+18   8.3224
   1.12316   6.7680E+03  1.5602E+18   8.5618
   1.12586   6.7260E+03  1.5205E+18   9.1768
   1.12713   6.2092E+03  1.3131E+18  10.5482
   1.12805   6.3284E+03  1.4536E+18   9.5752
   1.13005   5.9252E+03  1.4705E+18   8.0204
   1.13271   5.4202E+03  1.3972E+18   7.6597
   1.13492   5.5814E+03  1.4670E+18   7.5992
   1.13693   6.1227E+03  1.5709E+18   7.7844
   1.13957   6.1965E+03  1.6185E+18   7.5879
   1.14086   5.9391E+03  1.5645E+18   7.4060
   1.14179   5.8141E+03  1.5810E+18   6.5460
   1.14381   5.6641E+03  1.6596E+18   4.8530
   1.14639   5.6379E+03  1.5578E+18   5.4201
   1.14769   5.8004E+03  1.6490E+18   5.1832
   1.14862   5.7701E+03  1.6547E+18   5.1111
   1.15066   5.7452E+03  1.5769E+18   5.4593
   1.15319   5.4301E+03  1.5462E+18   5.1181
   1.15451   5.1622E+03  1.5018E+18   4.9868
   1.15545   5.4300E+03  1.5129E+18   6.2018
   1.15750   5.6486E+03  1.5589E+18   6.3497
   1.16000   5.4535E+03  1.6044E+18   6.1008
   1.16132   5.1028E+03  1.5325E+18   5.7552
   1.16227   4.9139E+03  1.4522E+18   5.8624
   1.16434   4.9259E+03  1.3890E+18   6.4065
   1.16678   4.7291E+03  1.3744E+18   6.1358
   1.16811   4.1931E+03  1.2680E+18   5.7143
   1.16906   3.6229E+03  1.1122E+18   5.7053
   1.17114   3.6584E+03  1.1424E+18   5.0204
   1.17352   3.3069E+03  1.0738E+18   4.6714
   1.17487   3.6523E+03  1.0802E+18   4.9369
   1.17583   3.8693E+03  1.1327E+18   5.0896
   1.17792   4.1810E+03  1.0577E+18   8.3105
   1.18026   3.7284E+03  9.6993E+17   7.7730
   1.18162   3.3646E+03  8.3685E+17   8.4535
   1.18259   3.3798E+03  8.1337E+17   8.7284
   1.18469   3.5048E+03  8.4501E+17   8.7596
   1.18699   3.4325E+03  8.5534E+17   8.3630
   1.19364   3.3597E+03  8.1794E+17   8.5014
   1.19502   3.1168E+03  6.8452E+17   8.9072
   1.19600   3.0215E+03  6.9354E+17   8.5588
   1.19812   2.2453E+03  6.6315E+17   4.9951
   1.20835   2.5196E+03  7.7025E+17   4.9210
   1.20934   2.6310E+03  8.3960E+17   4.1132
   1.21349   2.6945E+03  8.8158E+17   3.9164
   1.21491   2.5642E+03  8.8641E+17   3.5615
   1.21591   2.3124E+03  8.5396E+17   3.1628
   1.21807   2.3156E+03  8.6012E+17   3.0718
   1.22003   2.3027E+03  9.1397E+17   2.5951
   1.22146   2.4248E+03  9.6535E+17   2.5859
   1.22464   2.7276E+03  1.0590E+18   2.7219
   1.22657   2.4708E+03  9.5982E+17   2.7596
   1.22802   2.5015E+03  9.7725E+17   2.7266
   1.22903   3.0197E+03  1.1979E+18   2.6881
   1.23122   2.7677E+03  1.0914E+18   2.8946
   1.23302   2.7966E+03  1.1230E+18   2.8049
   1.23448   2.6748E+03  1.0782E+18   2.8710
   1.23550   2.5132E+03  1.0079E+18   2.8843
   1.23770   2.2848E+03  8.9963E+17   3.0910
   1.23943   2.0470E+03  7.9724E+17   3.2971
   1.24193   2.2050E+03  8.6269E+17   3.2388
   1.25218   1.9799E+03  7.7498E+17   3.2451
   1.25472   1.2545E+03  4.7641E+17   3.2420
   1.25843   1.2633E+03  4.8015E+17   3.1702
   1.26099   1.2432E+03  4.2414E+17   3.5565
   1.26324   1.3709E+03  4.8215E+17   3.3762
   1.26468   1.4639E+03  5.1530E+17   3.4045
   1.26621   1.5160E+03  5.2342E+17   3.5501
   1.26952   1.4162E+03  5.1685E+17   3.2020
   1.27090   1.3930E+03  5.0911E+17   3.1941
   1.27245   1.5024E+03  5.3591E+17   3.3723
   1.27351   1.4961E+03  5.2598E+17   3.6644
   1.27578   1.7449E+03  5.9755E+17   3.7834
   1.27696   1.7797E+03  6.3934E+17   3.4848
   1.27853   1.7411E+03  5.3176E+17   4.3545
   1.27959   5.1124E+02  1.4576E+17   4.9965
   1.28187   2.5916E+03  7.6226E+17   4.6951
   1.29406   2.4960E+03  9.7884E+17   2.6412
{END}
