{NUMBER OF COLUMNS}  4
*
*
*
*
*
*  PSIn        ne                   Te              Ti
*              (10E+6 m-3)         (eV)            (eV)  
{DATA}
   0.97537     9.0253e+011        7.1445        13.3320
   0.97662     8.9283e+011        7.1373        13.3510
   0.97786     8.8249e+011        7.1292        13.3710
   0.97910     8.7165e+011        7.1220        13.3780
   0.98033     8.6298e+011        7.1167        13.3650
   0.98156     1.0052e+012        7.9505        14.4640
   0.98277     1.2743e+012        9.5180        16.5550
   0.98399     1.2586e+012        9.5092        16.5610
   0.98519     1.2496e+012        9.5036        16.5790
   0.98639     1.2753e+012        9.7877        16.8600
   0.98758     1.5791e+012       12.5850        19.4000
   0.98877     1.5562e+012       12.5850        19.4170
   0.98994     1.5402e+012       12.5850        19.4330
   0.99112     1.8180e+012       15.3750        21.4250
   0.99228     1.8943e+012       16.4760        22.2150
   0.99344     1.8771e+012       16.8340        22.4350
   0.99459     2.1054e+012       20.7020        24.7740
   0.99574     2.0807e+012       21.3680        25.1410
   0.99688     2.2041e+012       25.0480        27.1520
   0.99801     2.2384e+012       28.2180        28.8800
   0.99914     2.2460e+012       31.8600        30.7350
   1.00026     2.1760e+012       38.2010        34.5460
   1.00137     2.1743e+012       39.4930        35.3970
   1.00248     2.2915e+012       39.4640        35.4460
   1.00358     2.0552e+012       42.6100        41.9460
   1.00467     2.0699e+012       42.6200        41.9860
   1.00576     2.1057e+012       42.3930        43.0530
   1.00684     2.0123e+012       41.3840        47.8370
   1.00791     2.0625e+012       41.3710        47.8230
   1.00898     1.9766e+012       40.7910        49.1230
   1.01004     1.6765e+012       39.3360        52.4880
   1.01110     1.7196e+012       39.3350        52.4730
   1.01215     1.6228e+012       38.2770        53.8660
   1.01319     1.3974e+012       36.3610        56.3970
   1.01422     1.3996e+012       36.3550        56.3970
   1.01525     1.4021e+012       36.3480        56.3980
   1.01628     1.4085e+012       36.3410        56.3970
   1.01729     1.4373e+012       36.3370        56.3970
   1.01830     1.3442e+012       35.1690        57.2700
   1.01930     1.1342e+012       33.1010        58.8260
   1.02030     1.1369e+012       33.1080        58.8270
   1.02129     1.1393e+012       33.1140        58.8260
   1.02227     1.1421e+012       33.1230        58.8240
   1.02325     1.1465e+012       33.1300        58.8210
   1.02422     1.1321e+012       32.6380        58.8330
   1.02518     9.7881e+011       30.1410        58.9290
   1.02614     9.9361e+011       30.1370        58.9170
   1.02709     1.0063e+012       30.1350        58.9050
   1.02803     1.0209e+012       30.1330        58.8940
   1.02897     1.0341e+012       30.1320        58.8850
   1.02990     1.0477e+012       30.1300        58.8730
   1.03083     9.0418e+011       28.5990        58.2400
   1.03175     8.3073e+011       27.7580        57.8900
   1.03266     8.4187e+011       27.7570        57.8820
   1.03356     8.5361e+011       27.7570        57.8770
   1.03446     8.6402e+011       27.7590        57.8750
   1.03535     8.7504e+011       27.7610        57.8730
   1.03624     8.8489e+011       27.7620        57.8710
   1.03712     7.1984e+011       25.8080        56.7640
   1.03799     7.0203e+011       25.5550        56.6250
   1.03886     7.1287e+011       25.5520        56.6270
   1.03972     7.2195e+011       25.5490        56.6280
   1.04057     7.3176e+011       25.5450        56.6270
   1.04142     7.4059e+011       25.5420        56.6240
   1.04226     7.4967e+011       25.5380        56.6220
   1.04309     6.4921e+011       24.2810        55.4360
   1.04392     6.0272e+011       23.7100        54.9050
   1.04474     6.0684e+011       23.7110        54.9160
   1.04555     6.1591e+011       23.7100        54.9250
   1.04636     6.2504e+011       23.7100        54.9300
   1.04716     6.3347e+011       23.7100        54.9250
   1.04796     6.4180e+011       23.7100        54.9200
   1.04874     6.3299e+011       23.4750        54.6750
   1.04953     5.3290e+011       21.9020        53.0570
   1.05030     5.3380e+011       21.8950        53.0650
   1.05107     5.3827e+011       21.8880        53.0710
   1.05183     5.4456e+011       21.8810        53.0760
   1.05259     5.5026e+011       21.8760        53.0720
   1.05334     5.5697e+011       21.8710        53.0670
   1.05408     5.6337e+011       21.8660        53.0620
   1.05481     5.6338e+011       21.7900        52.9630
   1.05554     4.8743e+011       20.6160        51.4470
   1.05627     4.8918e+011       20.6200        51.4450
   1.05698     4.9516e+011       20.6300        51.4590
   1.05769     5.0026e+011       20.6380        51.4790
   1.05840     4.5951e+011       20.0500        51.0390
   1.05910     4.4745e+011       19.8680        50.8910
   1.05979     4.4817e+011       19.8650        50.8830
   1.06047     4.4895e+011       19.8610        50.8740
   1.06115     4.3635e+011       19.5230        50.3480
   1.06182     4.0675e+011       18.7650        49.1620
   1.06248     4.0879e+011       18.7650        49.1450
   1.06314     4.1159e+011       18.7640        49.1220
   1.06379     4.1396e+011       18.7640        49.1040
   1.06444     4.1697e+011       18.7630        49.0820
   1.06508     4.1967e+011       18.7630        49.0630
   1.06571     4.2233e+011       18.7620        49.0430
   1.06634     4.1909e+011       18.6100        48.7910
   1.06696     3.6501e+011       17.3940        46.8900
   1.06757     3.6611e+011       17.3950        46.8930
   1.06818     3.6716e+011       17.3960        46.8970
   1.06878     3.6851e+011       17.3980        46.9010
   1.06937     3.6943e+011       17.3980        46.9030
   1.06996     3.7209e+011       17.4000        46.9160
   1.07054     3.7432e+011       17.4020        46.9280
   1.07111     3.7733e+011       17.4040        46.9430
   1.07168     3.7366e+011       17.2460        46.6920
   1.07224     3.2218e+011       16.0410        44.6880
   1.07279     3.2142e+011       16.0380        44.7010
   1.07334     3.2230e+011       16.0360        44.6970
   1.07388     3.2460e+011       16.0370        44.6760
   1.07442     3.2681e+011       16.0360        44.6550
   1.07494     3.2908e+011       16.0410        44.6360
   1.07547     3.3144e+011       16.0420        44.6140
   1.07598     3.3320e+011       16.0420        44.5980
   1.07649     3.3599e+011       16.0530        44.5820
   1.07699     3.3135e+011       15.9250        44.2730
   1.07749     2.7670e+011       14.7810        41.7340
   1.07798     2.7532e+011       14.7880        41.7150
   1.07846     2.7466e+011       14.7900        41.7010
   1.07894     2.7547e+011       14.7800        41.6870
   1.07941     2.7640e+011       14.7690        41.6700
   1.07987     2.7720e+011       14.7590        41.6570
   1.08033     2.7893e+011       14.7540        41.6470
   1.08078     2.8250e+011       14.7570        41.6490
   1.08122     2.8610e+011       14.7600        41.6490
   1.08166     2.8958e+011       14.7640        41.6520
   1.08166     2.6912e+011       14.4230        40.8150
   1.08256     2.2003e+011       13.5260        38.6090
   1.08345     2.2053e+011       13.5290        38.6240
   1.08434     2.2108e+011       13.5330        38.6360
   1.08523     2.2222e+011       13.5390        38.6300
   1.08612     2.2336e+011       13.5440        38.6160
   1.08700     2.0665e+011       13.2580        37.8620
   1.08788     1.4762e+011       12.2920        35.3940
   1.08876     1.4803e+011       12.2940        35.4090
   1.08964     1.4975e+011       12.3050        35.4240
   1.09051     1.5124e+011       12.3150        35.4380
   1.09138     1.5275e+011       12.3240        35.4520
   1.09225     1.5387e+011       12.3310        35.4660
{END}
