{NUMBER OF COLUMNS}  4
*
*
*
*
*
*  PSIn        ne                   Te              Ti
*              (10E+6 m-3)         (eV)            (eV)  
{DATA}
   1.09324     1.4026e+011          10.3170          31.2250
   1.09266     1.4021e+011    	    10.3170          31.2270
   1.09206     1.3981e+011    	    10.3270          31.2350
   1.09146     1.3937e+011    	    10.3390          31.2440
   1.09086     1.3910e+011    	    10.3460          31.2490
   1.09024     1.3891e+011    	    10.3480          31.2550
   1.08961     1.3814e+011    	    10.3610          31.2590
   1.08898     1.3717e+011    	    10.3700          31.2640
   1.08834     1.3631e+011    	    10.3810          31.2670
   1.08769     1.7797e+011    	    11.2640          33.8840
   1.08703     1.9947e+011    	    11.7150          35.2360
   1.08637     1.9837e+011    	    11.7200          35.2740
   1.08569     1.9761e+011    	    11.7220          35.2870
   1.08501     1.9635e+011    	    11.7270          35.3030
   1.08432     1.9525e+011    	    11.7310          35.3130
   1.08362     1.9373e+011    	    11.7350          35.3230
   1.08291     1.9223e+011    	    11.7400          35.3390
   1.08220     2.4043e+011    	    12.9160          37.7580
   1.08147     2.4814e+011    	    13.1180          38.1690
   1.08074     2.4738e+011    	    13.1230          38.1690
   1.08000     2.4641e+011    	    13.1310          38.1630
   1.07925     2.4554e+011    	    13.1380          38.1590
   1.07849     2.4462e+011    	    13.1470          38.1530
   1.07773     2.4374e+011    	    13.1540          38.1480
   1.07695     2.8672e+011    	    14.1850          40.5520
   1.07617     3.0378e+011    	    14.5950          41.5250
   1.07538     3.0297e+011    	    14.5880          41.5210
   1.07458     3.0129e+011    	    14.5820          41.5150
   1.07377     2.9967e+011    	    14.5720          41.5060
   1.07296     2.9806e+011    	    14.5660          41.5010
   1.07213     2.9931e+011    	    14.6310          41.5980
   1.07130     3.5832e+011    	    15.9090          43.4020
   1.07046     3.5752e+011    	    15.9060          43.4050
   1.06961     3.5652e+011    	    15.9010          43.4090
   1.06875     3.5590e+011    	    15.8990          43.4120
   1.06788     3.5437e+011    	    15.9000          43.4140
   1.06701     3.5267e+011    	    15.9040          43.4160
   1.06612     4.0967e+011    	    17.2580          44.9730
   1.06523     4.1828e+011    	    17.4820          45.2300
   1.06433     4.1708e+011    	    17.4870          45.2390
   1.06342     4.1639e+011    	    17.4890          45.2450
   1.06250     4.1539e+011    	    17.4930          45.2500
   1.06158     4.1432e+011    	    17.4970          45.2570
   1.06064     5.0225e+011    	    18.7090          46.4520
   1.05970     5.0151e+011    	    18.7350          46.4790
   1.05875     4.9812e+011    	    18.7370          46.4860
   1.05779     5.4042e+011    	    19.4030          47.2210
   1.05682     5.5345e+011    	    19.6050          47.4380
   1.05584     5.5260e+011    	    19.6030          47.4270
   1.05486     6.0477e+011    	    20.4390          48.1810
   1.05386     6.3616e+011    	    20.9520          48.6440
   1.05286     6.3541e+011    	    20.9520          48.6440
   1.05185     6.3433e+011    	    20.9510          48.6440
   1.05083     6.3164e+011    	    20.9530          48.6430
   1.04980     6.2680e+011    	    20.9550          48.6380
   1.04877     7.0983e+011    	    22.1130          49.3620
   1.04772     7.6452e+011    	    22.8540          49.8250
   1.04667     7.6361e+011    	    22.8540          49.8210
   1.04560     7.6277e+011    	    22.8540          49.8150
   1.04453     7.6149e+011    	    22.8540          49.8100
   1.04345     7.6058e+011    	    22.8530          49.8060
   1.04236     8.9884e+011    	    24.2600          50.4660
   1.04126     9.2504e+011    	    24.5430          50.5880
   1.04016     9.1992e+011    	    24.5420          50.5780
   1.03904     9.1354e+011    	    24.5420          50.5730
   1.03792     9.0664e+011    	    24.5430          50.5730
   1.03679     9.7397e+011    	    25.2670          50.8340
   1.03565     1.1113e+012    	    26.6340          51.3250
   1.03450     1.1093e+012    	    26.6290          51.3210
   1.03334     1.1073e+012    	    26.6240          51.3170
   1.03217     1.1057e+012    	    26.6200          51.3140
   1.03100     1.1039e+012    	    26.6150          51.3100
   1.02981     1.3534e+012    	    28.9560          51.3230
   1.02862     1.3445e+012    	    28.9700          51.3140
   1.02742     1.3325e+012    	    28.9660          51.3090
   1.02621     1.3214e+012    	    28.9650          51.3040
   1.02499     1.3108e+012    	    28.9630          51.3000
   1.02376     1.6598e+012    	    31.3900          50.2650
   1.02252     1.6829e+012    	    31.5730          50.1830
   1.02128     1.6793e+012    	    31.5760          50.1770
   1.02002     1.6765e+012    	    31.5780          50.1730
   1.01876     1.6730e+012    	    31.5810          50.1670
   1.01749     2.1231e+012    	    34.7670          47.2590
   1.01621     2.1011e+012    	    34.7880          47.2250
   1.01492     2.0775e+012    	    34.7910          47.2160
   1.01362     2.0535e+012    	    34.7940          47.2070
   1.01231     2.1877e+012    	    35.5840          46.0170
   1.01099     2.5584e+012    	    37.4790          43.1680
   1.00967     2.5535e+012    	    37.4780          43.1580
   1.00833     2.8437e+012    	    39.2190          39.7100
   1.00699     2.8221e+012    	    39.3480          39.4410
   1.00564     2.9899e+012    	    39.9500          36.4680
   1.00428     3.0860e+012    	    40.2520          34.9210
   1.00291     3.1416e+012    	    39.1800          33.1360
   1.00153     3.2337e+012    	    37.3410          30.0870
   1.00014     3.1655e+012    	    36.6420          29.6690
   0.99874     2.8511e+012    	    30.6780          26.3490
   0.99734     2.7777e+012    	    26.6900          24.6380
   0.99592     2.6993e+012    	    23.2510          23.2060
   0.99450     2.6155e+012    	    20.8790          22.1800
   0.99307     2.3486e+012    	    17.2390          20.4310
   0.99163     2.3321e+012    	    16.7520          20.2000
   0.99017     2.0247e+012    	    13.8370          18.3820
   0.98871     1.9431e+012    	    12.9660          17.8370
   0.98724     1.9382e+012    	    12.8280          17.7440
   0.98577     1.5125e+012    	     9.8152          15.7280
   0.98428     1.5226e+012    	     9.8122          15.7380
   0.98278     1.5327e+012    	     9.8096          15.7490
   0.98128     1.2726e+012    	     8.3602          13.9860
   0.97976     1.0775e+012    	     7.2687          12.6630
   0.97824     1.0847e+012    	     7.2724          12.6820
   0.97671     1.0914e+012    	     7.2760          12.7000
   0.97517     1.0987e+012    	     7.2772          12.7150
{END}
			      
