$
$    Diagnostic data sets for DIIID shot 134088 - power width study
$
$    Summary of data blocks in file:  103
$
$    INDEX  TITLE
$
$      1    CORE/MAIN THOMSON as a function of PSIn
$      2    CORE/MAIN THOMSON as a function of R,Z
$
$
$
$     Description of file format:
$
$     Each block of data is preceded by a header with specific
$     fields that may be optional.
$
$     The following are file headers
$
$     FILETITLE:  Describes file contents
$     FILECOUNT:  Lists number of datasets in file
$
$     The following are data set headers
$
$     INDEX: Number of data set in file - used for external selection
$     TITLE: Descriptive title for dataset
$     DATE:  Relevant date for determining validity of data
$     AXIS:  X-Axis type code ->  1=THETA  2=R 3=DIST 4=R,Z 5=CHAN
$     COUNT: Index numbers isolating the section of the dataset that
$            is relevant.
$     OFFSET:This input specifies an arbitrary value that will be
$            added to the data as an offset. If a value of -1.0 is
$            specified then the data extractor finds the minimum
$            value in the data set and subtracts this from all
$            data elements - this gives a way of accounting zero offsets
$            in the data.
$     CUTOFF:This quantity specifies a cutoff value - if the experimental
$            data is larger than this cutoff value - the data will be
$            set to zero. This is required to account for "glitches"
$            in the experimental data.
$     NCOLS: This input specifies the number of columns of experimental
$            data in the table - if it is not specified a value of
$            one (1) is assumed.
$
$     Only the INDEX field is ABSOLUTELY required. The others are
$     highly recommended. If the AXIS field is left off the AXIS
$     interpretation defaults to THETA in degrees.
$
$
FILETITLE: DIIID 134088 experimental diagnostic data 
FILECOUNT: 2
$
INDEX:  1
TITLE:  CORE THOMSON 2500 to 2900ms 134088
DATE:   April, 2010
AXIS:   6
SCALEF: 1.0
UNITS:  Psin, Ne [m-3], Te [eV]
COUNT:  1  859
NCOLS:  2
1	0.61081	4.352E+19	1406.752
2	0.47911	4.239E+19	1837.757
3	0.52759	4.879E+19	1394.727
4	0.39956	5.105E+19	1952.95
5	0.33112	5.485E+19	2178.581
6	0.21725	6.081E+19	2741.065
7	0.16113	6.774E+19	3476.592
8	0.1957	6.678E+19	3536.674
9	1.08607	3.09E+18	0.847
10	1.02872	3.02E+18	9.906
11	1.01514	5.03E+18	24.355
12	0.99887	1.302E+19	90.281
13	0.98243	2.908E+19	265.526
14	0.96714	4.371E+19	476.695
15	0.95048	4.179E+19	567.581
16	0.93377	4.419E+19	638.777
17	0.91831	4.356E+19	700.431
18	0.90153	4.51E+19	734.338
19	0.88467	4.46E+19	847.435
20	0.86641	4.581E+19	869.897
21	0.84933	4.544E+19	791.64
22	0.82946	4.891E+19	906.203
23	0.81075	4.427E+19	996.4
24	0.79187	4.52E+19	992.886
25	0.77284	4.43E+19	1023.988
26	0.75087	4.168E+19	1038.791
27	0.70485	4.606E+19	1109.434
28	0.63061	4.422E+19	1318.846
29	0.50116	4.425E+19	1810.83
30	0.54917	4.937E+19	1542.529
31	0.42146	5.269E+19	2044.685
32	0.35196	5.493E+19	2212.456
33	0.23459	6.224E+19	3259.376
34	0.17682	6.675E+19	3094.058
35	0.21476	6.637E+19	3234.982
36	1.08634	2.66E+18	5.816
37	1.04371	2.68E+18	0.643
38	1.02755	3.73E+18	9.067
39	1.01363	4.34E+18	21.897
40	0.99695	1.097E+19	52.437
41	0.98007	2.578E+19	180.257
42	0.96436	3.886E+19	409.697
43	0.94723	3.757E+19	496.455
44	0.93003	4.25E+19	578.973
45	0.9141	4.23E+19	653.588
46	0.89679	4.521E+19	739.253
47	0.8794	4.225E+19	765.307
48	0.86055	4.46E+19	843.033
49	0.84292	4.545E+19	839.218
50	0.82242	4.542E+19	940.115
51	0.80312	4.315E+19	978.682
52	0.78366	4.378E+19	1009.375
53	0.76404	4.385E+19	1170.429
54	0.74143	4.488E+19	1041.961
55	0.69416	4.336E+19	1191.431
56	0.61824	4.377E+19	1504.522
57	0.48706	4.164E+19	1816.038
58	0.53552	4.871E+19	1431.184
59	0.40714	5.017E+19	2031.465
60	0.33798	5.43E+19	2358.867
61	0.22227	6.111E+19	2772.819
62	0.16556	6.863E+19	3288.206
63	0.20213	6.911E+19	3276.079
64	1.08634	2E+18	7.031
65	1.07249	2.35E+18	14.894
66	1.04371	3.37E+18	10.214
67	1.02755	4.54E+18	22.038
68	1.01363	1.266E+19	48.391
69	0.99695	2.646E+19	163.807
70	0.98007	4.286E+19	384.9
71	0.96436	4.779E+19	576.66
72	0.94723	4.716E+19	605.267
73	0.93003	4.796E+19	647.078
74	0.9141	4.609E+19	736.57
75	0.89679	4.909E+19	775.628
76	0.8794	4.684E+19	818.122
77	0.86055	4.484E+19	807.299
78	0.84292	4.751E+19	980.55
79	0.82242	4.957E+19	940.661
80	0.80312	4.65E+19	1089.524
81	0.78366	4.677E+19	1043.858
82	0.76404	4.554E+19	1010.49
83	0.74143	4.603E+19	1168.079
84	0.69416	4.641E+19	1171.032
85	0.61824	4.184E+19	1499.727
86	0.48706	4.235E+19	1999.764
87	0.53552	4.805E+19	1650.097
88	0.40714	5.378E+19	2134.663
89	0.33798	5.574E+19	2139.923
90	0.22227	5.862E+19	2794.301
91	0.16556	6.609E+19	3101.701
92	0.20213	6.509E+19	2973.187
93	1.08822	1.072E+19	147.165
94	1.07451	2.95E+18	115.135
95	1.06044	2.11E+18	66.448
96	1.01622	3.91E+18	39.976
97	0.9997	1.519E+19	100.859
98	0.983	3.766E+19	357.389
99	0.96747	4.721E+19	551.255
100	0.95055	4.587E+19	639.741
101	0.93356	4.609E+19	673.544
102	0.91784	4.552E+19	698.542
103	0.90077	5.013E+19	780.239
104	0.8836	4.65E+19	874.328
105	0.86499	4.65E+19	841.805
106	0.84756	4.869E+19	1046.144
107	0.82726	5.028E+19	941.524
108	0.80814	4.838E+19	1061.47
109	0.78886	4.78E+19	1018.676
110	0.76942	4.639E+19	1046.475
111	0.747	4.578E+19	1176.597
112	0.7001	4.606E+19	1215.589
113	0.62464	4.341E+19	1524.735
114	0.49378	4.417E+19	1885.288
115	0.54221	5.004E+19	1503.894
116	0.41364	5.284E+19	1871.235
117	0.34402	5.305E+19	2173.537
118	0.22697	6.186E+19	3004.38
119	0.16951	6.658E+19	3146.819
120	0.20698	6.62E+19	3233.083
121	1.01622	3.91E+18	31.944
122	0.9997	1.363E+19	67.395
123	0.983	2.797E+19	223.697
124	0.96747	3.691E+19	436.36
125	0.95055	3.936E+19	533.769
126	0.93356	4.257E+19	559.912
127	0.91784	4.293E+19	712.217
128	0.90077	4.556E+19	686.088
129	0.8836	4.288E+19	785.88
130	0.86499	4.167E+19	824.778
131	0.84756	4.498E+19	1033.158
132	0.82726	4.705E+19	922.678
133	0.80814	4.381E+19	950.629
134	0.78886	4.508E+19	1100.306
135	0.76942	4.505E+19	1051.731
136	0.747	4.277E+19	1120.754
137	0.7001	4.363E+19	1263.941
138	0.62464	4.36E+19	1394.811
139	0.49378	4.111E+19	1873.648
140	0.54221	4.985E+19	1673.911
141	0.41364	5.346E+19	2013.508
142	0.34402	5.699E+19	2279.531
143	0.22697	6.047E+19	2812.332
144	0.16951	6.43E+19	3145.636
145	0.20698	5.727E+19	2797.626
146	1.0931	3.44E+18	8.912
147	1.07844	3.78E+18	7.717
148	1.06339	4.14E+18	14.291
149	1.04797	6.31E+18	1.357
150	1.03086	4.53E+18	8.04
151	1.01611	4.77E+18	37.049
152	0.99841	1.339E+19	75.632
153	0.98045	2.846E+19	267.956
154	0.96369	4.324E+19	491.164
155	0.94538	4.615E+19	574.289
156	0.92694	4.699E+19	685.023
157	0.90984	4.796E+19	687.67
158	0.89122	4.851E+19	757.225
159	0.87248	4.656E+19	735.47
160	0.85215	4.559E+19	835.541
161	0.83313	4.571E+19	894.737
162	0.81101	4.988E+19	812.454
163	0.79021	4.453E+19	1044.572
164	0.76929	4.595E+19	1055.317
165	0.74825	4.733E+19	1195.122
166	0.72409	4.505E+19	1204.718
167	0.67389	4.526E+19	1184.191
168	0.59434	4.545E+19	1405.94
169	0.46036	4.55E+19	2099.808
170	0.50933	4.994E+19	1676.002
171	0.38087	5.309E+19	2032.158
172	0.31326	5.487E+19	2278.277
173	0.20197	6.393E+19	2772.392
174	0.14611	6.734E+19	3185.533
175	0.17647	6.764E+19	3450.648
176	1.09119	2.29E+18	6.567
177	1.03048	4.42E+18	9.143
178	1.0161	7.99E+18	25.169
179	0.99884	1.44E+19	91.77
180	0.98136	2.989E+19	284.863
181	0.96507	4.224E+19	521.309
182	0.94728	4.272E+19	614.485
183	0.92938	4.421E+19	633.006
184	0.9128	4.726E+19	690.358
185	0.89475	4.757E+19	743.132
186	0.8766	4.315E+19	909.143
187	0.8569	4.4E+19	831.431
188	0.83846	4.39E+19	954.248
189	0.81701	4.726E+19	875.885
190	0.79683	4.623E+19	1011.961
191	0.7765	4.536E+19	1051.204
192	0.75604	4.561E+19	1150.435
193	0.7325	4.248E+19	1061.424
194	0.68348	4.659E+19	1184.295
195	0.60536	4.124E+19	1434.831
196	0.47243	4.483E+19	1986.895
197	0.52123	4.96E+19	1335.123
198	0.39269	5.252E+19	2028.465
199	0.32439	5.802E+19	2292.325
200	0.21126	6.021E+19	2957.362
201	0.15533	6.724E+19	3067.251
202	0.18872	6.294E+19	3367.236
203	1.09119	3.2E+18		6.032
204	1.07689	2.79E+18	12.022
205	1.06221	1.98E+18	64.975
206	1.04716	4.01E+18	1.397
207	1.03048	3.3E+18		8.378
208	1.0161	6.04E+18	21.955
209	0.99884	1.168E+19	29.448
210	0.98136	2.659E+19	157.92
211	0.96507	3.58E+19	323.404
212	0.94728	3.678E+19	474.502
213	0.92938	3.756E+19	560.674
214	0.9128	3.905E+19	631.979
215	0.89475	4.166E+19	753.351
216	0.8766	3.822E+19	810.64
217	0.8569	4.058E+19	845.978
218	0.83846	4.174E+19	948.444
219	0.81701	4.608E+19	837.782
220	0.79683	4.245E+19	1031.628
221	0.7765	4.146E+19	1062.986
222	0.75604	4.195E+19	1046.037
223	0.7325	4.113E+19	1063.74
224	0.68348	4.13E+19	1175.371
225	0.60536	4.346E+19	1434.328
226	0.47243	4.318E+19	1794.262
227	0.52123	4.714E+19	1641.276
228	0.39269	5.348E+19	1872.958
229	0.32439	5.274E+19	2183.023
230	0.21126	6.141E+19	2767.316
231	0.15533	6.333E+19	2892.492
232	0.18872	6.985E+19	3274.73
233	1.03243	2.89E+18	9.738
234	1.01902	4.3E+18		24.387
235	1.00296	8.99E+18	63.757
236	0.98674	2.153E+19	170.313
237	0.97165	3.955E+19	411.655
238	0.95522	4.44E+19	620.701
239	0.93873	4.586E+19	605.892
240	0.92349	4.539E+19	737.33
241	0.90693	4.718E+19	742.993
242	0.89028	4.475E+19	747.045
243	0.87222	4.56E+19	792.557
244	0.8553	4.5E+19		899.271
245	0.83558	4.916E+19	914.99
246	0.817	4.439E+19	1056.872
247	0.79824	4.386E+19	1149.943
248	0.77931	4.516E+19	1140.206
249	0.75745	4.44E+19	1137.76
250	0.71161	4.54E+19	1152.211
251	0.63751	4.094E+19	1459.034
252	0.50784	4.219E+19	1969.419
253	0.55601	4.761E+19	1441.195
254	0.42766	4.994E+19	2029.818
255	0.35751	5.541E+19	2520.939
256	0.23849	5.826E+19	2778.067
257	0.17945	6.251E+19	2844.087
258	0.21766	6.233E+19	3017.81
259	1.01744	2.3E+18		18.128
260	0.99993	1.274E+19	42.118
261	0.98217	1.999E+19	150.891
262	0.96561	4.133E+19	411.85
263	0.94752	4.032E+19	528.402
264	0.9293	4.235E+19	678.97
265	0.91242	4.148E+19	625.391
266	0.89404	4.637E+19	693.818
267	0.87554	4.194E+19	736.121
268	0.85548	4.332E+19	774.495
269	0.83671	4.374E+19	999.424
270	0.81488	4.484E+19	941.241
271	0.79435	4.302E+19	994.309
272	0.77369	4.476E+19	966.516
273	0.75291	4.249E+19	1177.658
274	0.72903	4.166E+19	1085.925
275	0.67939	4.207E+19	1170.489
276	0.60059	4.082E+19	1468.226
277	0.46744	4.167E+19	1971.582
278	0.51618	5.067E+19	1524.953
279	0.38814	5.066E+19	1839.102
280	0.3205	5.16E+19	2217.799
281	0.20876	5.998E+19	3053.204
282	0.15242	6.591E+19	3111.864
283	0.18287	6.399E+19	2634.808
284	1.09364	1.58E+18	8.018
285	1.04897	2.44E+18	1.41
286	1.01744	4.45E+18	22.215
287	0.99993	1.262E+19	59.85
288	0.98217	3.042E+19	308.914
289	0.96561	4.461E+19	520.616
290	0.94752	4.771E+19	611.513
291	0.9293	4.77E+19	693.641
292	0.91242	4.674E+19	650.577
293	0.89404	4.73E+19	779.691
294	0.87554	4.568E+19	807.256
295	0.85548	4.656E+19	884.89
296	0.83671	4.865E+19	975.63
297	0.81488	4.651E+19	891.18
298	0.79435	4.55E+19	1084.669
299	0.77369	4.515E+19	1081.719
300	0.75291	4.621E+19	1204.84
301	0.72903	4.428E+19	1115.711
302	0.67939	4.466E+19	1250.107
303	0.60059	4.412E+19	1474.801
304	0.46744	4.026E+19	1847.574
305	0.51618	4.27E+19	1661.741
306	0.38814	4.986E+19	1910.743
307	0.3205	5.568E+19	2303.123
308	0.20876	6.277E+19	2767.001
309	0.15242	6.315E+19	2780.541
310	0.18287	5.791E+19	2593.207
311	1.08663	2.58E+18	3.068
312	1.04477	2.95E+18	1.765
313	1.0289	2.59E+18	25.735
314	1.01523	5.68E+18	14.344
315	0.99886	1.372E+19	67.285
316	0.9823	3E+19		210.018
317	0.96689	3.894E+19	441.532
318	0.95011	3.851E+19	544.039
319	0.93326	4.033E+19	584.706
320	0.91767	4.139E+19	676.169
321	0.90073	4.366E+19	701.93
322	0.88372	4.243E+19	785.6
323	0.86529	4.131E+19	822.267
324	0.84804	4.093E+19	973.554
325	0.82798	4.459E+19	861.784
326	0.80909	4.196E+19	954.325
327	0.79003	4.222E+19	1027.996
328	0.77081	4.366E+19	1123.46
329	0.74864	4.196E+19	1100.745
330	0.70222	4.455E+19	1124.55
331	0.6274	4.187E+19	1435.803
332	0.49725	4.103E+19	1863.303
333	0.54546	4.643E+19	1377.061
334	0.41736	5.138E+19	1883.302
335	0.34788	5.578E+19	2232.106
336	0.23104	6.177E+19	3105.856
337	0.17423	6.485E+19	3187.362
338	0.2127	6.696E+19	2698.707
339	1.08663	6.12E+18	15.423
340	1.07303	7.98E+18	11.515
341	1.05908	6.72E+18	18.824
342	1.04477	6.57E+18	17.101
343	1.0289	9.06E+18	12.12
344	1.01523	8.08E+18	16.923
345	0.99886	9.41E+18	32.775
346	0.9823	1.453E+19	59.079
347	0.96689	2.642E+19	178.8
348	0.95011	3.27E+19	403.683
349	0.93326	3.458E+19	535.328
350	0.91767	3.569E+19	699.057
351	0.90073	3.999E+19	616.172
352	0.88372	3.736E+19	629.248
353	0.86529	3.737E+19	761.034
354	0.84804	3.929E+19	921.308
355	0.82798	4.276E+19	882.246
356	0.80909	4.128E+19	938.483
357	0.79003	4.131E+19	1057.303
358	0.77081	4.257E+19	1016.115
359	0.74864	4.168E+19	1070.681
360	0.70222	4.303E+19	1128.236
361	0.6274	4.446E+19	1451.013
362	0.49725	4.105E+19	1896.544
363	0.54546	5.108E+19	1645.401
364	0.41736	5.301E+19	1742.746
365	0.34788	5.47E+19	2139.525
366	0.23104	6.137E+19	2667.856
367	0.17423	6.288E+19	2948.774
368	0.2127	6.907E+19	3995.032
369	1.08508	3.26E+18	7.764
370	1.04336	2.23E+18	10.11
371	1.02755	2.48E+18	26.008
372	1.01393	7.03E+18	17.367
373	0.99762	1.1E+19	58.464
374	0.98113	2.204E+19	178.865
375	0.9658	4.163E+19	437.792
376	0.9491	4.388E+19	565.066
377	0.93234	4.451E+19	648.971
378	0.91684	4.437E+19	695.627
379	0.90001	4.764E+19	736.335
380	0.88311	4.642E+19	801.507
381	0.8648	4.743E+19	868.399
382	0.84768	4.322E+19	990.232
383	0.82775	4.846E+19	885.732
384	0.809	4.381E+19	1058.285
385	0.79008	4.536E+19	1030.642
386	0.77099	4.435E+19	1231.262
387	0.74897	4.388E+19	1236.518
388	0.70286	4.647E+19	1216.333
389	0.62848	4.157E+19	1491.381
390	0.49891	4.059E+19	1838.979
391	0.54694	5.135E+19	1655.401
392	0.41925	5.212E+19	1950.14
393	0.34988	5.368E+19	2333.377
394	0.23316	5.922E+19	3022.335
395	0.17668	6.387E+19	3051.843
396	0.21575	6.436E+19	3467.944
397	1.04664	4.65E+18	1.625
398	1.01734	4.7E+18	17.916
399	1.0011	1.42E+19	54.877
400	0.98467	3.052E+19	173.925
401	0.9694	3.618E+19	409.294
402	0.95275	3.801E+19	496.572
403	0.93604	3.701E+19	546.844
404	0.92059	3.899E+19	647.534
405	0.90379	4.389E+19	828.799
406	0.8869	3.866E+19	705.576
407	0.86858	4.307E+19	820.718
408	0.85142	4.385E+19	927.51
409	0.83143	4.28E+19	750.139
410	0.8126	4.045E+19	973.499
411	0.79359	4.195E+19	947.964
412	0.77442	4.112E+19	1053.657
413	0.7523	3.882E+19	1124.453
414	0.70598	4.52E+19	1125.873
415	0.63131	3.933E+19	1485.435
416	0.50138	4.241E+19	1937.767
417	0.54953	4.893E+19	1668.409
418	0.42153	5.394E+19	1821.356
419	0.35198	5.57E+19	2261.682
420	0.23468	6.267E+19	2943.726
421	0.17689	6.712E+19	3146.092
422	0.21452	6.769E+19	3475.612
423	1.08817	9.57E+18	22.158
424	1.07468	1.045E+19	49.379
425	1.06084	1.708E+19	60.429
426	1.04664	1.261E+19	39.498
427	1.0309	1.239E+19	58.091
428	1.01734	1.145E+19	60.868
429	1.0011	1.701E+19	128.901
430	0.98467	2.731E+19	318.114
431	0.9694	2.739E+19	302.295
432	0.95275	3.123E+19	484.062
433	0.93604	3.273E+19	496.182
434	0.92059	3.479E+19	500.577
435	0.90379	3.646E+19	606.084
436	0.8869	3.377E+19	552.068
437	0.86858	3.143E+19	585.138
438	0.85142	3.235E+19	731.25
439	0.83143	4.249E+19	866.827
440	0.8126	4.102E+19	1048.665
441	0.79359	4.295E+19	951.225
442	0.77442	4.134E+19	864.899
443	0.7523	3.842E+19	1058.698
444	0.70598	4.079E+19	1170.297
445	0.63131	4.108E+19	1377.467
446	0.50138	4.041E+19	1984.23
447	0.54953	4.711E+19	1465.697
448	0.42153	4.817E+19	2003.689
449	0.35198	5.27E+19	2225.569
450	0.23468	6.277E+19	3339.326
451	0.17689	6.474E+19	3235.525
452	0.21452	6.702E+19	3164.001
453	1.05871	1.2E+18	23.967
454	1.01437	4.3E+18	20.494
455	0.99781	1.338E+19	78.877
456	0.98107	3.012E+19	255.84
457	0.9655	4.095E+19	457.267
458	0.94854	4.246E+19	586.115
459	0.93151	4.276E+19	680.319
460	0.91577	4.036E+19	697.833
461	0.89867	4.582E+19	769.965
462	0.8815	4.403E+19	829.417
463	0.86291	4.412E+19	878.557
464	0.84552	4.222E+19	848.964
465	0.82531	4.537E+19	813.477
466	0.8063	4.463E+19	935.907
467	0.78713	4.313E+19	989.949
468	0.76781	4.273E+19	1054.514
469	0.74555	4.211E+19	1182.347
470	0.69899	4.27E+19	1131.449
471	0.62416	4.004E+19	1433.71
472	0.49456	4.006E+19	1877.363
473	0.54249	4.489E+19	1741.803
474	0.41534	4.98E+19	2253.037
475	0.34662	5.393E+19	2464.485
476	0.23129	6.083E+19	2905.741
477	0.17488	6.249E+19	3356.512
478	0.21194	6.197E+19	2934.183
479	1.08776	1.88E+18	9.315
480	1.06013	4.91E+18	0.553
481	1.04578	2.46E+18	9.51
482	1.02987	4.06E+18	10.934
483	1.01617	3.57E+18	20.579
484	0.99974	8.55E+18	31.302
485	0.98314	2.338E+19	98.595
486	0.9677	3.293E+19	304.232
487	0.95087	3.566E+19	457.771
488	0.93398	3.715E+19	534.276
489	0.91835	3.708E+19	586.361
490	0.90137	4.191E+19	692.934
491	0.8843	3.98E+19	798.925
492	0.86579	3.821E+19	764.179
493	0.84846	4.052E+19	943.234
494	0.82827	4.21E+19	771.7
495	0.80927	4.16E+19	872.443
496	0.7901	4.244E+19	962.868
497	0.77077	4.187E+19	1067.397
498	0.74848	4.241E+19	1105.284
499	0.70187	4.189E+19	1200.258
500	0.62691	4.227E+19	1320.492
501	0.49699	4.109E+19	1761.524
502	0.54506	4.683E+19	1561.188
503	0.4175	5.115E+19	1896.768
504	0.34846	5.298E+19	2388.487
505	0.23242	6.031E+19	2875.684
506	0.17534	6.368E+19	2811.587
507	0.21229	6.368E+19	2534.738
508	1.07412	3.36E+18	13.151
509	1.06013	4.07E+18	11.521
510	1.02987	2.84E+18	29.568
511	1.01617	6.61E+18	30.312
512	0.99974	1.445E+19	93.098
513	0.98314	2.969E+19	304.6
514	0.9677	4.242E+19	487.449
515	0.95087	4.473E+19	640.796
516	0.93398	4.511E+19	727.479
517	0.91835	4.51E+19	742.145
518	0.90137	4.8E+19	774.535
519	0.8843	4.855E+19	799.611
520	0.86579	4.332E+19	851.139
521	0.84846	4.505E+19	999.174
522	0.82827	4.889E+19	909.305
523	0.80927	4.498E+19	1001.718
524	0.7901	4.602E+19	1144.762
525	0.77077	4.459E+19	1103.965
526	0.74848	4.112E+19	1117.24
527	0.70187	4.421E+19	1214.589
528	0.62691	4.314E+19	1451.843
529	0.49699	4.175E+19	1871.781
530	0.54506	4.477E+19	1830.607
531	0.4175	5.367E+19	1981.623
532	0.34846	5.626E+19	2323.238
533	0.23242	5.945E+19	3294.774
534	0.17534	6.655E+19	3244.054
535	0.21229	6.537E+19	4019.403
536	1.08912	2.26E+18	13.334
537	1.07541	1.99E+18	7.799
538	1.06136	2.92E+18	8.305
539	1.04693	1.59E+18	9.744
540	1.01718	5.58E+18	39.42
541	1.00068	1.379E+19	59.834
542	0.98401	2.662E+19	180.427
543	0.9685	3.831E+19	393.804
544	0.95161	3.853E+19	506.621
545	0.93465	3.952E+19	607.77
546	0.91896	4.147E+19	672.73
547	0.90192	4.302E+19	716.014
548	0.8848	3.893E+19	812.352
549	0.86624	4.034E+19	878.126
550	0.84885	4.127E+19	991.786
551	0.82861	4.212E+19	920.307
552	0.80956	4.101E+19	1051.537
553	0.79035	4.358E+19	1106.071
554	0.77098	4.075E+19	1057.082
555	0.74865	4.193E+19	1120.168
556	0.70197	4.476E+19	1152.087
557	0.62694	4.364E+19	1614.907
558	0.49702	4.31E+19	1913.627
559	0.54507	4.763E+19	1476.294
560	0.41756	5.283E+19	2203.965
561	0.34858	5.411E+19	2283.138
562	0.23259	5.847E+19	2810.347
563	0.17527	6.714E+19	3255.996
564	0.21172	6.489E+19	3446.697
565	1.08912	3.86E+18	7.575
566	1.07541	3.7E+18	6.565
567	1.06136	3.46E+18	11.911
568	1.04693	3.11E+18	7.327
569	1.03095	3.94E+18	11.295
570	1.01718	3.72E+18	30.759
571	1.00068	1.033E+19	36.588
572	0.98401	1.624E+19	101.451
573	0.9685	3.032E+19	200.982
574	0.95161	3.418E+19	420.484
575	0.93465	3.498E+19	500.737
576	0.91896	3.666E+19	617.942
577	0.90192	3.798E+19	675.855
578	0.8848	3.788E+19	771.448
579	0.86624	4.053E+19	732.658
580	0.84885	3.977E+19	904.681
581	0.82861	4.322E+19	848.816
582	0.80956	3.984E+19	914.278
583	0.79035	4.037E+19	1075.746
584	0.77098	4.189E+19	1076.16
585	0.74865	4.174E+19	1028.078
586	0.70197	4.372E+19	1122.242
587	0.62694	4.059E+19	1442.378
588	0.49702	4.041E+19	2156.094
589	0.54507	4.435E+19	1628.26
590	0.41756	5.131E+19	2125.548
591	0.34858	5.132E+19	2183.714
592	0.23259	5.71E+19	2431.69
593	0.17527	6.324E+19	3217.424
594	0.21172	5.972E+19	2696.522
595	1.08807	1.181E+19	84.604
596	1.07472	1.223E+19	85.997
597	1.06103	1.305E+19	73.829
598	1.04697	1.32E+19	48.836
599	1.0314	1.304E+19	78.033
600	1.01799	9.93E+18	46.175
601	1.00194	1.101E+19	75.086
602	0.98573	1.126E+19	95.751
603	0.97067	1.323E+19	110.623
604	0.95429	1.485E+19	181.676
605	0.93786	2.199E+19	313.68
606	0.92268	2.811E+19	416.831
607	0.90621	3.292E+19	480.948
608	0.88966	3.065E+19	538.573
609	0.87173	3.832E+19	705.093
610	0.85493	4.715E+19	728.012
611	0.83538	3.996E+19	780.257
612	0.81695	4.111E+19	903.52
613	0.79837	4.301E+19	1059.76
614	0.77961	4.229E+19	976.849
615	0.75798	4.147E+19	1144.504
616	0.71263	4.358E+19	1183.821
617	0.63941	4.097E+19	1444.962
618	0.51136	4.439E+19	2037.644
619	0.55892	4.815E+19	1718.11
620	0.43222	5.077E+19	1655.724
621	0.36299	5.638E+19	2430.676
622	0.24557	6.081E+19	3031.509
623	0.18752	5.813E+19	2654.428
624	0.22557	6.092E+19	3030.103
625	1.0769	2.05E+18	13.392
626	1.04726	1.83E+18	13.83
627	1.03063	3.2E+18	15.611
628	1.01629	5.52E+18	32.905
629	0.9991	1.63E+19	100.577
630	0.98169	3.383E+19	315.067
631	0.96547	4.215E+19	510.884
632	0.94777	4.291E+19	612.757
633	0.92998	4.25E+19	658.684
634	0.91349	4.369E+19	718.654
635	0.89556	4.386E+19	709.691
636	0.87753	4.312E+19	837.065
637	0.85797	4.202E+19	857.645
638	0.83967	4.379E+19	976.735
639	0.81839	4.561E+19	905.38
640	0.79837	4.066E+19	1044.718
641	0.77822	4.053E+19	1087.508
642	0.75794	4.204E+19	1135.956
643	0.73461	4.077E+19	1161.588
644	0.68606	4.076E+19	1340.351
645	0.60873	4.053E+19	1638.471
646	0.47722	3.867E+19	2016.507
647	0.52549	4.199E+19	1527.523
648	0.39836	5.012E+19	1800.327
649	0.33081	5.29E+19	2394.139
650	0.21886	5.567E+19	2759.641
651	0.16327	5.983E+19	2768.754
652	0.19597	6.26E+19	2856.512
653	1.09117	8.42E+18	15.659
654	1.0769	1.073E+19	24.237
655	1.06226	8.4E+18	17.932
656	1.04726	8.27E+18	12.898
657	1.03063	1.19E+19	18.444
658	1.01629	1.129E+19	24.175
659	0.9991	1.246E+19	22.797
660	0.98169	1.634E+19	67.551
661	0.96547	2.809E+19	229.765
662	0.94777	3.145E+19	438.994
663	0.92998	3.237E+19	483.132
664	0.91349	3.4E+19	525.218
665	0.89556	3.888E+19	691.365
666	0.87753	3.763E+19	677.234
667	0.85797	3.715E+19	762.878
668	0.83967	4.1E+19	856.514
669	0.81839	4.329E+19	797.264
670	0.79837	3.827E+19	864.877
671	0.77822	4.039E+19	938.404
672	0.75794	4.019E+19	1071.66
673	0.73461	4.255E+19	991.457
674	0.68606	4.265E+19	1181.661
675	0.60873	4.261E+19	1497.036
676	0.47722	4.161E+19	1745.957
677	0.52549	4.755E+19	1684.623
678	0.39836	5.136E+19	1862.988
679	0.33081	5.227E+19	2065.312
680	0.21886	5.677E+19	2930.187
681	0.16327	6.096E+19	2877.473
682	0.19597	6.276E+19	2884.957
683	1.06168	1.61E+18	12.388
684	1.03181	1.96E+18	11.529
685	1.01829	3.31E+18	17.312
686	1.0021	1.299E+19	52.021
687	0.98574	2.409E+19	233.578
688	0.97052	4.076E+19	468.107
689	0.95396	4.21E+19	575.262
690	0.93733	4.288E+19	625.207
691	0.92196	4.255E+19	657.731
692	0.90526	4.455E+19	698
693	0.88848	4.465E+19	846.445
694	0.87029	4.368E+19	845.859
695	0.85324	4.335E+19	786.004
696	0.8334	4.594E+19	868.552
697	0.8147	4.367E+19	1040.344
698	0.79584	4.341E+19	1072.041
699	0.77682	4.064E+19	1096.923
700	0.75488	4.114E+19	1061.81
701	0.70893	4.232E+19	1120.934
702	0.63487	4.113E+19	1484.606
703	0.50591	4.002E+19	1875.335
704	0.55372	4.579E+19	1776.566
705	0.42655	5.093E+19	2116.884
706	0.35734	5.194E+19	2080.526
707	0.24021	5.512E+19	2354.21
708	0.1817	6.091E+19	3031.173
709	0.21819	6.253E+19	3126.119
710	1.05913	2.01E+18	10.221
711	1.0152	5.06E+18	13.772
712	0.9988	1.427E+19	46.579
713	0.98223	2.433E+19	177.168
714	0.96681	3.933E+19	388.281
715	0.95002	4.023E+19	613.444
716	0.93317	4.087E+19	607.585
717	0.91759	4.082E+19	626.728
718	0.90066	4.549E+19	691.288
719	0.88367	4.183E+19	737.378
720	0.86526	4.212E+19	887.755
721	0.84805	4.056E+19	809.563
722	0.82803	4.461E+19	883.438
723	0.80919	4.233E+19	961.555
724	0.7902	4.409E+19	930.818
725	0.77104	4.304E+19	1063.698
726	0.74896	4.165E+19	1048.805
727	0.70274	4.213E+19	1067.402
728	0.62833	4.155E+19	1593.997
729	0.49909	4.044E+19	1759.707
730	0.54694	4.475E+19	1517.428
731	0.41984	4.903E+19	1940.178
732	0.35093	5.516E+19	2405.147
733	0.235	6.054E+19	3041.776
734	0.17819	6.398E+19	2958.929
735	0.21561	6.435E+19	3040.782
736	1.08674	3.55E+18	3.543
737	1.05913	3.41E+18	9.568
738	1.04479	2.73E+18	13.794
739	1.02889	4.3E+18	12.363
740	1.0152	6.47E+18	26.561
741	0.9988	1.592E+19	79.998
742	0.98223	3.443E+19	285.003
743	0.96681	4.297E+19	473.34
744	0.95002	4.556E+19	586.043
745	0.93317	4.52E+19	720.007
746	0.91759	4.633E+19	759.504
747	0.90066	4.856E+19	693.992
748	0.88367	4.702E+19	787.415
749	0.86526	4.595E+19	900.963
750	0.84805	4.422E+19	1000.568
751	0.82803	4.789E+19	853.214
752	0.80919	4.511E+19	1035.429
753	0.7902	4.224E+19	1008.954
754	0.77104	4.253E+19	1031.849
755	0.74896	4.24E+19	1159.921
756	0.70274	4.368E+19	1251.114
757	0.62833	3.956E+19	1462.6
758	0.49909	4.211E+19	1977.878
759	0.54694	4.6E+19	1457.698
760	0.41984	5.229E+19	1955.205
761	0.35093	5.216E+19	2339.601
762	0.235	5.882E+19	2880.26
763	0.17819	6.36E+19	3104.775
764	0.21561	5.811E+19	2923.925
765	1.06067	2.18E+18	13.013
766	1.04646	1.98E+18	6.875
767	1.03071	3.19E+18	10.805
768	1.01714	4.04E+18	20.681
769	1.0009	1.494E+19	54.835
770	0.98448	2.942E+19	239.183
771	0.96921	3.771E+19	409.63
772	0.95257	3.882E+19	569.889
773	0.93588	3.843E+19	602.038
774	0.92044	3.868E+19	717.953
775	0.90367	4.303E+19	699.793
776	0.88681	4.074E+19	795.57
777	0.86853	4.133E+19	809.467
778	0.85141	4.072E+19	916.29
779	0.83147	4.478E+19	884.198
780	0.8127	4.093E+19	1065.232
781	0.79375	4.135E+19	937.383
782	0.77465	4.058E+19	1002.927
783	0.75262	4.191E+19	1040.709
784	0.70651	4.31E+19	1173.531
785	0.63224	4.19E+19	1437.248
786	0.50317	4.088E+19	1754.193
787	0.55098	4.556E+19	1515.173
788	0.42394	5.139E+19	2073.115
789	0.35497	5.282E+19	2413.305
790	0.23864	5.528E+19	2959.42
791	0.1811	6.394E+19	3106.974
792	0.21799	5.995E+19	3007.229
793	1.04646	2.59E+18	9.363
794	1.01714	5.97E+18	19.913
795	1.0009	1.201E+19	37.016
796	0.98448	2.168E+19	167.668
797	0.96921	3.335E+19	355.801
798	0.95257	3.753E+19	486.295
799	0.93588	3.998E+19	612.367
800	0.92044	4.308E+19	751.115
801	0.90367	4.194E+19	754.564
802	0.88681	4.264E+19	789.948
803	0.86853	4.223E+19	880.167
804	0.85141	4.61E+19	1010.621
805	0.83147	4.616E+19	902.208
806	0.8127	4.49E+19	1031.263
807	0.79375	4.297E+19	1052.056
808	0.77465	4.442E+19	1121.614
809	0.75262	4.001E+19	1236.146
810	0.70651	4.566E+19	1144.188
811	0.63224	4.004E+19	1521.694
812	0.50317	3.997E+19	1673.868
813	0.55098	4.578E+19	1561.083
814	0.42394	4.912E+19	1800.779
815	0.35497	5.282E+19	2124.617
816	0.23864	5.586E+19	2515.553
817	0.1811	6.004E+19	3006.716
818	0.21799	6.252E+19	2925.902
819	1.09046	7.64E+18	20.613
820	1.07625	4.46E+18	26.01
821	1.06168	7.56E+18	42.094
822	1.04674	1.082E+19	78.316
823	1.03017	1.767E+19	187.892
824	1.01589	2.7E+19	179.006
825	0.99876	1.5E+19	83.834
826	0.98142	1.237E+19	93.634
827	0.96525	1.686E+19	140.552
828	0.94761	1.81E+19	279.83
829	0.92986	2.245E+19	380.192
830	0.91342	2.903E+19	526.149
831	0.89553	3.851E+19	673.326
832	0.87754	4.618E+19	750.281
833	0.85802	4.373E+19	749.82
834	0.83976	4.331E+19	798.555
835	0.81851	4.186E+19	809.326
836	0.79853	4.603E+19	808.989
837	0.77841	4.73E+19	961.381
838	0.75816	4.315E+19	1016.721
839	0.73486	4.719E+19	1074.558
840	0.68637	4.39E+19	1090.299
841	0.60913	4.18E+19	1568.68
842	0.47777	4.115E+19	1905.973
843	0.52598	4.757E+19	1449.248
844	0.399	4.916E+19	1938.085
845	0.33155	5.299E+19	1988.046
846	0.21979	5.965E+19	2592.15
847	0.16436	6.52E+19	2961.568
848	0.19708	6.44E+19	3843.981
849	1.07693	1.94E+18	11.568
850	1.04725	2.04E+18	14.163
851	1.03059	2.87E+18	149.012
852	1.01623	7.3E+18	28.489
853	0.99901	1.506E+19	67.546
854	0.98156	2.813E+19	231.128
855	0.96529	4.22E+19	499.624
856	0.94754	4.399E+19	609.279
857	0.92968	4.504E+19	680.617
858	0.91313	4.427E+19	727.552
859	0.89512	4.776E+19	737.593
$
INDEX:  2
TITLE:  CORE THOMSON 2500 to 2900ms 134088
DATE:   March 6, 2001
AXIS:   4
SCALEF: 1.0
UNITS:  R(m)    Z(m)    Ne (m-3)  Te (eV)
COUNT:  1  859
NCOLS:  3
1	1.94	0.478	4.352E+19	1406.752
2	1.94	0.389	4.239E+19	1837.757
3	1.94	0.422	4.879E+19	1394.727
4	1.94	0.333	5.105E+19	1952.95
5	1.94	0.281	5.485E+19	2178.581
6	1.94	0.172	6.081E+19	2741.065
7	1.94	0.042	6.774E+19	3476.592
8	1.94	-0.068	6.678E+19	3536.674
9	1.94	0.825	3.09E+18	0.847
10	1.94	0.776	3.02E+18	9.906
11	1.94	0.765	5.03E+18	24.355
12	1.94	0.752	1.302E+19	90.281
13	1.94	0.739	2.908E+19	265.526
14	1.94	0.727	4.371E+19	476.695
15	1.94	0.714	4.179E+19	567.581
16	1.94	0.701	4.419E+19	638.777
17	1.94	0.689	4.356E+19	700.431
18	1.94	0.676	4.51E+19	734.338
19	1.94	0.663	4.46E+19	847.435
20	1.94	0.649	4.581E+19	869.897
21	1.94	0.636	4.544E+19	791.64
22	1.94	0.621	4.891E+19	906.203
23	1.94	0.607	4.427E+19	996.4
24	1.94	0.593	4.52E+19	992.886
25	1.94	0.579	4.43E+19	1023.988
26	1.94	0.563	4.168E+19	1038.791
27	1.94	0.53	4.606E+19	1109.434
28	1.94	0.478	4.422E+19	1318.846
29	1.94	0.389	4.425E+19	1810.83
30	1.94	0.422	4.937E+19	1542.529
31	1.94	0.333	5.269E+19	2044.685
32	1.94	0.281	5.493E+19	2212.456
33	1.94	0.172	6.224E+19	3259.376
34	1.94	0.042	6.675E+19	3094.058
35	1.94	-0.068	6.637E+19	3234.982
36	1.94	0.825	2.66E+18	5.816
37	1.94	0.789	2.68E+18	0.643
38	1.94	0.776	3.73E+18	9.067
39	1.94	0.765	4.34E+18	21.897
40	1.94	0.752	1.097E+19	52.437
41	1.94	0.739	2.578E+19	180.257
42	1.94	0.727	3.886E+19	409.697
43	1.94	0.714	3.757E+19	496.455
44	1.94	0.701	4.25E+19	578.973
45	1.94	0.689	4.23E+19	653.588
46	1.94	0.676	4.521E+19	739.253
47	1.94	0.663	4.225E+19	765.307
48	1.94	0.649	4.46E+19	843.033
49	1.94	0.636	4.545E+19	839.218
50	1.94	0.621	4.542E+19	940.115
51	1.94	0.607	4.315E+19	978.682
52	1.94	0.593	4.378E+19	1009.375
53	1.94	0.579	4.385E+19	1170.429
54	1.94	0.563	4.488E+19	1041.961
55	1.94	0.53	4.336E+19	1191.431
56	1.94	0.478	4.377E+19	1504.522
57	1.94	0.389	4.164E+19	1816.038
58	1.94	0.422	4.871E+19	1431.184
59	1.94	0.333	5.017E+19	2031.465
60	1.94	0.281	5.43E+19	2358.867
61	1.94	0.172	6.111E+19	2772.819
62	1.94	0.042	6.863E+19	3288.206
63	1.94	-0.068	6.911E+19	3276.079
64	1.94	0.825	2E+18	7.031
65	1.94	0.813	2.35E+18	14.894
66	1.94	0.789	3.37E+18	10.214
67	1.94	0.776	4.54E+18	22.038
68	1.94	0.765	1.266E+19	48.391
69	1.94	0.752	2.646E+19	163.807
70	1.94	0.739	4.286E+19	384.9
71	1.94	0.727	4.779E+19	576.66
72	1.94	0.714	4.716E+19	605.267
73	1.94	0.701	4.796E+19	647.078
74	1.94	0.689	4.609E+19	736.57
75	1.94	0.676	4.909E+19	775.628
76	1.94	0.663	4.684E+19	818.122
77	1.94	0.649	4.484E+19	807.299
78	1.94	0.636	4.751E+19	980.55
79	1.94	0.621	4.957E+19	940.661
80	1.94	0.607	4.65E+19	1089.524
81	1.94	0.593	4.677E+19	1043.858
82	1.94	0.579	4.554E+19	1010.49
83	1.94	0.563	4.603E+19	1168.079
84	1.94	0.53	4.641E+19	1171.032
85	1.94	0.478	4.184E+19	1499.727
86	1.94	0.389	4.235E+19	1999.764
87	1.94	0.422	4.805E+19	1650.097
88	1.94	0.333	5.378E+19	2134.663
89	1.94	0.281	5.574E+19	2139.923
90	1.94	0.172	5.862E+19	2794.301
91	1.94	0.042	6.609E+19	3101.701
92	1.94	-0.068	6.509E+19	2973.187
93	1.94	0.825	1.072E+19	147.165
94	1.94	0.813	2.95E+18	115.135
95	1.94	0.801	2.11E+18	66.448
96	1.94	0.765	3.91E+18	39.976
97	1.94	0.752	1.519E+19	100.859
98	1.94	0.739	3.766E+19	357.389
99	1.94	0.727	4.721E+19	551.255
100	1.94	0.714	4.587E+19	639.741
101	1.94	0.701	4.609E+19	673.544
102	1.94	0.689	4.552E+19	698.542
103	1.94	0.676	5.013E+19	780.239
104	1.94	0.663	4.65E+19	874.328
105	1.94	0.649	4.65E+19	841.805
106	1.94	0.636	4.869E+19	1046.144
107	1.94	0.621	5.028E+19	941.524
108	1.94	0.607	4.838E+19	1061.47
109	1.94	0.593	4.78E+19	1018.676
110	1.94	0.579	4.639E+19	1046.475
111	1.94	0.563	4.578E+19	1176.597
112	1.94	0.53	4.606E+19	1215.589
113	1.94	0.478	4.341E+19	1524.735
114	1.94	0.389	4.417E+19	1885.288
115	1.94	0.422	5.004E+19	1503.894
116	1.94	0.333	5.284E+19	1871.235
117	1.94	0.281	5.305E+19	2173.537
118	1.94	0.172	6.186E+19	3004.38
119	1.94	0.042	6.658E+19	3146.819
120	1.94	-0.068	6.62E+19	3233.083
121	1.94	0.765	3.91E+18	31.944
122	1.94	0.752	1.363E+19	67.395
123	1.94	0.739	2.797E+19	223.697
124	1.94	0.727	3.691E+19	436.36
125	1.94	0.714	3.936E+19	533.769
126	1.94	0.701	4.257E+19	559.912
127	1.94	0.689	4.293E+19	712.217
128	1.94	0.676	4.556E+19	686.088
129	1.94	0.663	4.288E+19	785.88
130	1.94	0.649	4.167E+19	824.778
131	1.94	0.636	4.498E+19	1033.158
132	1.94	0.621	4.705E+19	922.678
133	1.94	0.607	4.381E+19	950.629
134	1.94	0.593	4.508E+19	1100.306
135	1.94	0.579	4.505E+19	1051.731
136	1.94	0.563	4.277E+19	1120.754
137	1.94	0.53	4.363E+19	1263.941
138	1.94	0.478	4.36E+19	1394.811
139	1.94	0.389	4.111E+19	1873.648
140	1.94	0.422	4.985E+19	1673.911
141	1.94	0.333	5.346E+19	2013.508
142	1.94	0.281	5.699E+19	2279.531
143	1.94	0.172	6.047E+19	2812.332
144	1.94	0.042	6.43E+19	3145.636
145	1.94	-0.068	5.727E+19	2797.626
146	1.94	0.825	3.44E+18	8.912
147	1.94	0.813	3.78E+18	7.717
148	1.94	0.801	4.14E+18	14.291
149	1.94	0.789	6.31E+18	1.357
150	1.94	0.776	4.53E+18	8.04
151	1.94	0.765	4.77E+18	37.049
152	1.94	0.752	1.339E+19	75.632
153	1.94	0.739	2.846E+19	267.956
154	1.94	0.727	4.324E+19	491.164
155	1.94	0.714	4.615E+19	574.289
156	1.94	0.701	4.699E+19	685.023
157	1.94	0.689	4.796E+19	687.67
158	1.94	0.676	4.851E+19	757.225
159	1.94	0.663	4.656E+19	735.47
160	1.94	0.649	4.559E+19	835.541
161	1.94	0.636	4.571E+19	894.737
162	1.94	0.621	4.988E+19	812.454
163	1.94	0.607	4.453E+19	1044.572
164	1.94	0.593	4.595E+19	1055.317
165	1.94	0.579	4.733E+19	1195.122
166	1.94	0.563	4.505E+19	1204.718
167	1.94	0.53	4.526E+19	1184.191
168	1.94	0.478	4.545E+19	1405.94
169	1.94	0.389	4.55E+19	2099.808
170	1.94	0.422	4.994E+19	1676.002
171	1.94	0.333	5.309E+19	2032.158
172	1.94	0.281	5.487E+19	2278.277
173	1.94	0.172	6.393E+19	2772.392
174	1.94	0.042	6.734E+19	3185.533
175	1.94	-0.068	6.764E+19	3450.648
176	1.94	0.825	2.29E+18	6.567
177	1.94	0.776	4.42E+18	9.143
178	1.94	0.765	7.99E+18	25.169
179	1.94	0.752	1.44E+19	91.77
180	1.94	0.739	2.989E+19	284.863
181	1.94	0.727	4.224E+19	521.309
182	1.94	0.714	4.272E+19	614.485
183	1.94	0.701	4.421E+19	633.006
184	1.94	0.689	4.726E+19	690.358
185	1.94	0.676	4.757E+19	743.132
186	1.94	0.663	4.315E+19	909.143
187	1.94	0.649	4.4E+19	831.431
188	1.94	0.636	4.39E+19	954.248
189	1.94	0.621	4.726E+19	875.885
190	1.94	0.607	4.623E+19	1011.961
191	1.94	0.593	4.536E+19	1051.204
192	1.94	0.579	4.561E+19	1150.435
193	1.94	0.563	4.248E+19	1061.424
194	1.94	0.53	4.659E+19	1184.295
195	1.94	0.478	4.124E+19	1434.831
196	1.94	0.389	4.483E+19	1986.895
197	1.94	0.422	4.96E+19	1335.123
198	1.94	0.333	5.252E+19	2028.465
199	1.94	0.281	5.802E+19	2292.325
200	1.94	0.172	6.021E+19	2957.362
201	1.94	0.042	6.724E+19	3067.251
202	1.94	-0.068	6.294E+19	3367.236
203	1.94	0.825	3.2E+18	6.032
204	1.94	0.813	2.79E+18	12.022
205	1.94	0.801	1.98E+18	64.975
206	1.94	0.789	4.01E+18	1.397
207	1.94	0.776	3.3E+18	8.378
208	1.94	0.765	6.04E+18	21.955
209	1.94	0.752	1.168E+19	29.448
210	1.94	0.739	2.659E+19	157.92
211	1.94	0.727	3.58E+19	323.404
212	1.94	0.714	3.678E+19	474.502
213	1.94	0.701	3.756E+19	560.674
214	1.94	0.689	3.905E+19	631.979
215	1.94	0.676	4.166E+19	753.351
216	1.94	0.663	3.822E+19	810.64
217	1.94	0.649	4.058E+19	845.978
218	1.94	0.636	4.174E+19	948.444
219	1.94	0.621	4.608E+19	837.782
220	1.94	0.607	4.245E+19	1031.628
221	1.94	0.593	4.146E+19	1062.986
222	1.94	0.579	4.195E+19	1046.037
223	1.94	0.563	4.113E+19	1063.74
224	1.94	0.53	4.13E+19	1175.371
225	1.94	0.478	4.346E+19	1434.328
226	1.94	0.389	4.318E+19	1794.262
227	1.94	0.422	4.714E+19	1641.276
228	1.94	0.333	5.348E+19	1872.958
229	1.94	0.281	5.274E+19	2183.023
230	1.94	0.172	6.141E+19	2767.316
231	1.94	0.042	6.333E+19	2892.492
232	1.94	-0.068	6.985E+19	3274.73
233	1.94	0.776	2.89E+18	9.738
234	1.94	0.765	4.3E+18	24.387
235	1.94	0.752	8.99E+18	63.757
236	1.94	0.739	2.153E+19	170.313
237	1.94	0.727	3.955E+19	411.655
238	1.94	0.714	4.44E+19	620.701
239	1.94	0.701	4.586E+19	605.892
240	1.94	0.689	4.539E+19	737.33
241	1.94	0.676	4.718E+19	742.993
242	1.94	0.663	4.475E+19	747.045
243	1.94	0.649	4.56E+19	792.557
244	1.94	0.636	4.5E+19	899.271
245	1.94	0.621	4.916E+19	914.99
246	1.94	0.607	4.439E+19	1056.872
247	1.94	0.593	4.386E+19	1149.943
248	1.94	0.579	4.516E+19	1140.206
249	1.94	0.563	4.44E+19	1137.76
250	1.94	0.53	4.54E+19	1152.211
251	1.94	0.478	4.094E+19	1459.034
252	1.94	0.389	4.219E+19	1969.419
253	1.94	0.422	4.761E+19	1441.195
254	1.94	0.333	4.994E+19	2029.818
255	1.94	0.281	5.541E+19	2520.939
256	1.94	0.172	5.826E+19	2778.067
257	1.94	0.042	6.251E+19	2844.087
258	1.94	-0.068	6.233E+19	3017.81
259	1.94	0.765	2.3E+18	18.128
260	1.94	0.752	1.274E+19	42.118
261	1.94	0.739	1.999E+19	150.891
262	1.94	0.727	4.133E+19	411.85
263	1.94	0.714	4.032E+19	528.402
264	1.94	0.701	4.235E+19	678.97
265	1.94	0.689	4.148E+19	625.391
266	1.94	0.676	4.637E+19	693.818
267	1.94	0.663	4.194E+19	736.121
268	1.94	0.649	4.332E+19	774.495
269	1.94	0.636	4.374E+19	999.424
270	1.94	0.621	4.484E+19	941.241
271	1.94	0.607	4.302E+19	994.309
272	1.94	0.593	4.476E+19	966.516
273	1.94	0.579	4.249E+19	1177.658
274	1.94	0.563	4.166E+19	1085.925
275	1.94	0.53	4.207E+19	1170.489
276	1.94	0.478	4.082E+19	1468.226
277	1.94	0.389	4.167E+19	1971.582
278	1.94	0.422	5.067E+19	1524.953
279	1.94	0.333	5.066E+19	1839.102
280	1.94	0.281	5.16E+19	2217.799
281	1.94	0.172	5.998E+19	3053.204
282	1.94	0.042	6.591E+19	3111.864
283	1.94	-0.068	6.399E+19	2634.808
284	1.94	0.825	1.58E+18	8.018
285	1.94	0.789	2.44E+18	1.41
286	1.94	0.765	4.45E+18	22.215
287	1.94	0.752	1.262E+19	59.85
288	1.94	0.739	3.042E+19	308.914
289	1.94	0.727	4.461E+19	520.616
290	1.94	0.714	4.771E+19	611.513
291	1.94	0.701	4.77E+19	693.641
292	1.94	0.689	4.674E+19	650.577
293	1.94	0.676	4.73E+19	779.691
294	1.94	0.663	4.568E+19	807.256
295	1.94	0.649	4.656E+19	884.89
296	1.94	0.636	4.865E+19	975.63
297	1.94	0.621	4.651E+19	891.18
298	1.94	0.607	4.55E+19	1084.669
299	1.94	0.593	4.515E+19	1081.719
300	1.94	0.579	4.621E+19	1204.84
301	1.94	0.563	4.428E+19	1115.711
302	1.94	0.53	4.466E+19	1250.107
303	1.94	0.478	4.412E+19	1474.801
304	1.94	0.389	4.026E+19	1847.574
305	1.94	0.422	4.27E+19	1661.741
306	1.94	0.333	4.986E+19	1910.743
307	1.94	0.281	5.568E+19	2303.123
308	1.94	0.172	6.277E+19	2767.001
309	1.94	0.042	6.315E+19	2780.541
310	1.94	-0.068	5.791E+19	2593.207
311	1.94	0.825	2.58E+18	3.068
312	1.94	0.789	2.95E+18	1.765
313	1.94	0.776	2.59E+18	25.735
314	1.94	0.765	5.68E+18	14.344
315	1.94	0.752	1.372E+19	67.285
316	1.94	0.739	3E+19	210.018
317	1.94	0.727	3.894E+19	441.532
318	1.94	0.714	3.851E+19	544.039
319	1.94	0.701	4.033E+19	584.706
320	1.94	0.689	4.139E+19	676.169
321	1.94	0.676	4.366E+19	701.93
322	1.94	0.663	4.243E+19	785.6
323	1.94	0.649	4.131E+19	822.267
324	1.94	0.636	4.093E+19	973.554
325	1.94	0.621	4.459E+19	861.784
326	1.94	0.607	4.196E+19	954.325
327	1.94	0.593	4.222E+19	1027.996
328	1.94	0.579	4.366E+19	1123.46
329	1.94	0.563	4.196E+19	1100.745
330	1.94	0.53	4.455E+19	1124.55
331	1.94	0.478	4.187E+19	1435.803
332	1.94	0.389	4.103E+19	1863.303
333	1.94	0.422	4.643E+19	1377.061
334	1.94	0.333	5.138E+19	1883.302
335	1.94	0.281	5.578E+19	2232.106
336	1.94	0.172	6.177E+19	3105.856
337	1.94	0.042	6.485E+19	3187.362
338	1.94	-0.068	6.696E+19	2698.707
339	1.94	0.825	6.12E+18	15.423
340	1.94	0.813	7.98E+18	11.515
341	1.94	0.801	6.72E+18	18.824
342	1.94	0.789	6.57E+18	17.101
343	1.94	0.776	9.06E+18	12.12
344	1.94	0.765	8.08E+18	16.923
345	1.94	0.752	9.41E+18	32.775
346	1.94	0.739	1.453E+19	59.079
347	1.94	0.727	2.642E+19	178.8
348	1.94	0.714	3.27E+19	403.683
349	1.94	0.701	3.458E+19	535.328
350	1.94	0.689	3.569E+19	699.057
351	1.94	0.676	3.999E+19	616.172
352	1.94	0.663	3.736E+19	629.248
353	1.94	0.649	3.737E+19	761.034
354	1.94	0.636	3.929E+19	921.308
355	1.94	0.621	4.276E+19	882.246
356	1.94	0.607	4.128E+19	938.483
357	1.94	0.593	4.131E+19	1057.303
358	1.94	0.579	4.257E+19	1016.115
359	1.94	0.563	4.168E+19	1070.681
360	1.94	0.53	4.303E+19	1128.236
361	1.94	0.478	4.446E+19	1451.013
362	1.94	0.389	4.105E+19	1896.544
363	1.94	0.422	5.108E+19	1645.401
364	1.94	0.333	5.301E+19	1742.746
365	1.94	0.281	5.47E+19	2139.525
366	1.94	0.172	6.137E+19	2667.856
367	1.94	0.042	6.288E+19	2948.774
368	1.94	-0.068	6.907E+19	3995.032
369	1.94	0.825	3.26E+18	7.764
370	1.94	0.789	2.23E+18	10.11
371	1.94	0.776	2.48E+18	26.008
372	1.94	0.765	7.03E+18	17.367
373	1.94	0.752	1.1E+19	58.464
374	1.94	0.739	2.204E+19	178.865
375	1.94	0.727	4.163E+19	437.792
376	1.94	0.714	4.388E+19	565.066
377	1.94	0.701	4.451E+19	648.971
378	1.94	0.689	4.437E+19	695.627
379	1.94	0.676	4.764E+19	736.335
380	1.94	0.663	4.642E+19	801.507
381	1.94	0.649	4.743E+19	868.399
382	1.94	0.636	4.322E+19	990.232
383	1.94	0.621	4.846E+19	885.732
384	1.94	0.607	4.381E+19	1058.285
385	1.94	0.593	4.536E+19	1030.642
386	1.94	0.579	4.435E+19	1231.262
387	1.94	0.563	4.388E+19	1236.518
388	1.94	0.53	4.647E+19	1216.333
389	1.94	0.478	4.157E+19	1491.381
390	1.94	0.389	4.059E+19	1838.979
391	1.94	0.422	5.135E+19	1655.401
392	1.94	0.333	5.212E+19	1950.14
393	1.94	0.281	5.368E+19	2333.377
394	1.94	0.172	5.922E+19	3022.335
395	1.94	0.042	6.387E+19	3051.843
396	1.94	-0.068	6.436E+19	3467.944
397	1.94	0.789	4.65E+18	1.625
398	1.94	0.765	4.7E+18	17.916
399	1.94	0.752	1.42E+19	54.877
400	1.94	0.739	3.052E+19	173.925
401	1.94	0.727	3.618E+19	409.294
402	1.94	0.714	3.801E+19	496.572
403	1.94	0.701	3.701E+19	546.844
404	1.94	0.689	3.899E+19	647.534
405	1.94	0.676	4.389E+19	828.799
406	1.94	0.663	3.866E+19	705.576
407	1.94	0.649	4.307E+19	820.718
408	1.94	0.636	4.385E+19	927.51
409	1.94	0.621	4.28E+19	750.139
410	1.94	0.607	4.045E+19	973.499
411	1.94	0.593	4.195E+19	947.964
412	1.94	0.579	4.112E+19	1053.657
413	1.94	0.563	3.882E+19	1124.453
414	1.94	0.53	4.52E+19	1125.873
415	1.94	0.478	3.933E+19	1485.435
416	1.94	0.389	4.241E+19	1937.767
417	1.94	0.422	4.893E+19	1668.409
418	1.94	0.333	5.394E+19	1821.356
419	1.94	0.281	5.57E+19	2261.682
420	1.94	0.172	6.267E+19	2943.726
421	1.94	0.042	6.712E+19	3146.092
422	1.94	-0.068	6.769E+19	3475.612
423	1.94	0.825	9.57E+18	22.158
424	1.94	0.813	1.045E+19	49.379
425	1.94	0.801	1.708E+19	60.429
426	1.94	0.789	1.261E+19	39.498
427	1.94	0.776	1.239E+19	58.091
428	1.94	0.765	1.145E+19	60.868
429	1.94	0.752	1.701E+19	128.901
430	1.94	0.739	2.731E+19	318.114
431	1.94	0.727	2.739E+19	302.295
432	1.94	0.714	3.123E+19	484.062
433	1.94	0.701	3.273E+19	496.182
434	1.94	0.689	3.479E+19	500.577
435	1.94	0.676	3.646E+19	606.084
436	1.94	0.663	3.377E+19	552.068
437	1.94	0.649	3.143E+19	585.138
438	1.94	0.636	3.235E+19	731.25
439	1.94	0.621	4.249E+19	866.827
440	1.94	0.607	4.102E+19	1048.665
441	1.94	0.593	4.295E+19	951.225
442	1.94	0.579	4.134E+19	864.899
443	1.94	0.563	3.842E+19	1058.698
444	1.94	0.53	4.079E+19	1170.297
445	1.94	0.478	4.108E+19	1377.467
446	1.94	0.389	4.041E+19	1984.23
447	1.94	0.422	4.711E+19	1465.697
448	1.94	0.333	4.817E+19	2003.689
449	1.94	0.281	5.27E+19	2225.569
450	1.94	0.172	6.277E+19	3339.326
451	1.94	0.042	6.474E+19	3235.525
452	1.94	-0.068	6.702E+19	3164.001
453	1.94	0.801	1.2E+18	23.967
454	1.94	0.765	4.3E+18	20.494
455	1.94	0.752	1.338E+19	78.877
456	1.94	0.739	3.012E+19	255.84
457	1.94	0.727	4.095E+19	457.267
458	1.94	0.714	4.246E+19	586.115
459	1.94	0.701	4.276E+19	680.319
460	1.94	0.689	4.036E+19	697.833
461	1.94	0.676	4.582E+19	769.965
462	1.94	0.663	4.403E+19	829.417
463	1.94	0.649	4.412E+19	878.557
464	1.94	0.636	4.222E+19	848.964
465	1.94	0.621	4.537E+19	813.477
466	1.94	0.607	4.463E+19	935.907
467	1.94	0.593	4.313E+19	989.949
468	1.94	0.579	4.273E+19	1054.514
469	1.94	0.563	4.211E+19	1182.347
470	1.94	0.53	4.27E+19	1131.449
471	1.94	0.478	4.004E+19	1433.71
472	1.94	0.389	4.006E+19	1877.363
473	1.94	0.422	4.489E+19	1741.803
474	1.94	0.333	4.98E+19	2253.037
475	1.94	0.281	5.393E+19	2464.485
476	1.94	0.172	6.083E+19	2905.741
477	1.94	0.042	6.249E+19	3356.512
478	1.94	-0.068	6.197E+19	2934.183
479	1.94	0.825	1.88E+18	9.315
480	1.94	0.801	4.91E+18	0.553
481	1.94	0.789	2.46E+18	9.51
482	1.94	0.776	4.06E+18	10.934
483	1.94	0.765	3.57E+18	20.579
484	1.94	0.752	8.55E+18	31.302
485	1.94	0.739	2.338E+19	98.595
486	1.94	0.727	3.293E+19	304.232
487	1.94	0.714	3.566E+19	457.771
488	1.94	0.701	3.715E+19	534.276
489	1.94	0.689	3.708E+19	586.361
490	1.94	0.676	4.191E+19	692.934
491	1.94	0.663	3.98E+19	798.925
492	1.94	0.649	3.821E+19	764.179
493	1.94	0.636	4.052E+19	943.234
494	1.94	0.621	4.21E+19	771.7
495	1.94	0.607	4.16E+19	872.443
496	1.94	0.593	4.244E+19	962.868
497	1.94	0.579	4.187E+19	1067.397
498	1.94	0.563	4.241E+19	1105.284
499	1.94	0.53	4.189E+19	1200.258
500	1.94	0.478	4.227E+19	1320.492
501	1.94	0.389	4.109E+19	1761.524
502	1.94	0.422	4.683E+19	1561.188
503	1.94	0.333	5.115E+19	1896.768
504	1.94	0.281	5.298E+19	2388.487
505	1.94	0.172	6.031E+19	2875.684
506	1.94	0.042	6.368E+19	2811.587
507	1.94	-0.068	6.368E+19	2534.738
508	1.94	0.813	3.36E+18	13.151
509	1.94	0.801	4.07E+18	11.521
510	1.94	0.776	2.84E+18	29.568
511	1.94	0.765	6.61E+18	30.312
512	1.94	0.752	1.445E+19	93.098
513	1.94	0.739	2.969E+19	304.6
514	1.94	0.727	4.242E+19	487.449
515	1.94	0.714	4.473E+19	640.796
516	1.94	0.701	4.511E+19	727.479
517	1.94	0.689	4.51E+19	742.145
518	1.94	0.676	4.8E+19	774.535
519	1.94	0.663	4.855E+19	799.611
520	1.94	0.649	4.332E+19	851.139
521	1.94	0.636	4.505E+19	999.174
522	1.94	0.621	4.889E+19	909.305
523	1.94	0.607	4.498E+19	1001.718
524	1.94	0.593	4.602E+19	1144.762
525	1.94	0.579	4.459E+19	1103.965
526	1.94	0.563	4.112E+19	1117.24
527	1.94	0.53	4.421E+19	1214.589
528	1.94	0.478	4.314E+19	1451.843
529	1.94	0.389	4.175E+19	1871.781
530	1.94	0.422	4.477E+19	1830.607
531	1.94	0.333	5.367E+19	1981.623
532	1.94	0.281	5.626E+19	2323.238
533	1.94	0.172	5.945E+19	3294.774
534	1.94	0.042	6.655E+19	3244.054
535	1.94	-0.068	6.537E+19	4019.403
536	1.94	0.825	2.26E+18	13.334
537	1.94	0.813	1.99E+18	7.799
538	1.94	0.801	2.92E+18	8.305
539	1.94	0.789	1.59E+18	9.744
540	1.94	0.765	5.58E+18	39.42
541	1.94	0.752	1.379E+19	59.834
542	1.94	0.739	2.662E+19	180.427
543	1.94	0.727	3.831E+19	393.804
544	1.94	0.714	3.853E+19	506.621
545	1.94	0.701	3.952E+19	607.77
546	1.94	0.689	4.147E+19	672.73
547	1.94	0.676	4.302E+19	716.014
548	1.94	0.663	3.893E+19	812.352
549	1.94	0.649	4.034E+19	878.126
550	1.94	0.636	4.127E+19	991.786
551	1.94	0.621	4.212E+19	920.307
552	1.94	0.607	4.101E+19	1051.537
553	1.94	0.593	4.358E+19	1106.071
554	1.94	0.579	4.075E+19	1057.082
555	1.94	0.563	4.193E+19	1120.168
556	1.94	0.53	4.476E+19	1152.087
557	1.94	0.478	4.364E+19	1614.907
558	1.94	0.389	4.31E+19	1913.627
559	1.94	0.422	4.763E+19	1476.294
560	1.94	0.333	5.283E+19	2203.965
561	1.94	0.281	5.411E+19	2283.138
562	1.94	0.172	5.847E+19	2810.347
563	1.94	0.042	6.714E+19	3255.996
564	1.94	-0.068	6.489E+19	3446.697
565	1.94	0.825	3.86E+18	7.575
566	1.94	0.813	3.7E+18	6.565
567	1.94	0.801	3.46E+18	11.911
568	1.94	0.789	3.11E+18	7.327
569	1.94	0.776	3.94E+18	11.295
570	1.94	0.765	3.72E+18	30.759
571	1.94	0.752	1.033E+19	36.588
572	1.94	0.739	1.624E+19	101.451
573	1.94	0.727	3.032E+19	200.982
574	1.94	0.714	3.418E+19	420.484
575	1.94	0.701	3.498E+19	500.737
576	1.94	0.689	3.666E+19	617.942
577	1.94	0.676	3.798E+19	675.855
578	1.94	0.663	3.788E+19	771.448
579	1.94	0.649	4.053E+19	732.658
580	1.94	0.636	3.977E+19	904.681
581	1.94	0.621	4.322E+19	848.816
582	1.94	0.607	3.984E+19	914.278
583	1.94	0.593	4.037E+19	1075.746
584	1.94	0.579	4.189E+19	1076.16
585	1.94	0.563	4.174E+19	1028.078
586	1.94	0.53	4.372E+19	1122.242
587	1.94	0.478	4.059E+19	1442.378
588	1.94	0.389	4.041E+19	2156.094
589	1.94	0.422	4.435E+19	1628.26
590	1.94	0.333	5.131E+19	2125.548
591	1.94	0.281	5.132E+19	2183.714
592	1.94	0.172	5.71E+19	2431.69
593	1.94	0.042	6.324E+19	3217.424
594	1.94	-0.068	5.972E+19	2696.522
595	1.94	0.825	1.181E+19	84.604
596	1.94	0.813	1.223E+19	85.997
597	1.94	0.801	1.305E+19	73.829
598	1.94	0.789	1.32E+19	48.836
599	1.94	0.776	1.304E+19	78.033
600	1.94	0.765	9.93E+18	46.175
601	1.94	0.752	1.101E+19	75.086
602	1.94	0.739	1.126E+19	95.751
603	1.94	0.727	1.323E+19	110.623
604	1.94	0.714	1.485E+19	181.676
605	1.94	0.701	2.199E+19	313.68
606	1.94	0.689	2.811E+19	416.831
607	1.94	0.676	3.292E+19	480.948
608	1.94	0.663	3.065E+19	538.573
609	1.94	0.649	3.832E+19	705.093
610	1.94	0.636	4.715E+19	728.012
611	1.94	0.621	3.996E+19	780.257
612	1.94	0.607	4.111E+19	903.52
613	1.94	0.593	4.301E+19	1059.76
614	1.94	0.579	4.229E+19	976.849
615	1.94	0.563	4.147E+19	1144.504
616	1.94	0.53	4.358E+19	1183.821
617	1.94	0.478	4.097E+19	1444.962
618	1.94	0.389	4.439E+19	2037.644
619	1.94	0.422	4.815E+19	1718.11
620	1.94	0.333	5.077E+19	1655.724
621	1.94	0.281	5.638E+19	2430.676
622	1.94	0.172	6.081E+19	3031.509
623	1.94	0.042	5.813E+19	2654.428
624	1.94	-0.068	6.092E+19	3030.103
625	1.94	0.813	2.05E+18	13.392
626	1.94	0.789	1.83E+18	13.83
627	1.94	0.776	3.2E+18	15.611
628	1.94	0.765	5.52E+18	32.905
629	1.94	0.752	1.63E+19	100.577
630	1.94	0.739	3.383E+19	315.067
631	1.94	0.727	4.215E+19	510.884
632	1.94	0.714	4.291E+19	612.757
633	1.94	0.701	4.25E+19	658.684
634	1.94	0.689	4.369E+19	718.654
635	1.94	0.676	4.386E+19	709.691
636	1.94	0.663	4.312E+19	837.065
637	1.94	0.649	4.202E+19	857.645
638	1.94	0.636	4.379E+19	976.735
639	1.94	0.621	4.561E+19	905.38
640	1.94	0.607	4.066E+19	1044.718
641	1.94	0.593	4.053E+19	1087.508
642	1.94	0.579	4.204E+19	1135.956
643	1.94	0.563	4.077E+19	1161.588
644	1.94	0.53	4.076E+19	1340.351
645	1.94	0.478	4.053E+19	1638.471
646	1.94	0.389	3.867E+19	2016.507
647	1.94	0.422	4.199E+19	1527.523
648	1.94	0.333	5.012E+19	1800.327
649	1.94	0.281	5.29E+19	2394.139
650	1.94	0.172	5.567E+19	2759.641
651	1.94	0.042	5.983E+19	2768.754
652	1.94	-0.068	6.26E+19	2856.512
653	1.94	0.825	8.42E+18	15.659
654	1.94	0.813	1.073E+19	24.237
655	1.94	0.801	8.4E+18	17.932
656	1.94	0.789	8.27E+18	12.898
657	1.94	0.776	1.19E+19	18.444
658	1.94	0.765	1.129E+19	24.175
659	1.94	0.752	1.246E+19	22.797
660	1.94	0.739	1.634E+19	67.551
661	1.94	0.727	2.809E+19	229.765
662	1.94	0.714	3.145E+19	438.994
663	1.94	0.701	3.237E+19	483.132
664	1.94	0.689	3.4E+19	525.218
665	1.94	0.676	3.888E+19	691.365
666	1.94	0.663	3.763E+19	677.234
667	1.94	0.649	3.715E+19	762.878
668	1.94	0.636	4.1E+19	856.514
669	1.94	0.621	4.329E+19	797.264
670	1.94	0.607	3.827E+19	864.877
671	1.94	0.593	4.039E+19	938.404
672	1.94	0.579	4.019E+19	1071.66
673	1.94	0.563	4.255E+19	991.457
674	1.94	0.53	4.265E+19	1181.661
675	1.94	0.478	4.261E+19	1497.036
676	1.94	0.389	4.161E+19	1745.957
677	1.94	0.422	4.755E+19	1684.623
678	1.94	0.333	5.136E+19	1862.988
679	1.94	0.281	5.227E+19	2065.312
680	1.94	0.172	5.677E+19	2930.187
681	1.94	0.042	6.096E+19	2877.473
682	1.94	-0.068	6.276E+19	2884.957
683	1.94	0.801	1.61E+18	12.388
684	1.94	0.776	1.96E+18	11.529
685	1.94	0.765	3.31E+18	17.312
686	1.94	0.752	1.299E+19	52.021
687	1.94	0.739	2.409E+19	233.578
688	1.94	0.727	4.076E+19	468.107
689	1.94	0.714	4.21E+19	575.262
690	1.94	0.701	4.288E+19	625.207
691	1.94	0.689	4.255E+19	657.731
692	1.94	0.676	4.455E+19	698
693	1.94	0.663	4.465E+19	846.445
694	1.94	0.649	4.368E+19	845.859
695	1.94	0.636	4.335E+19	786.004
696	1.94	0.621	4.594E+19	868.552
697	1.94	0.607	4.367E+19	1040.344
698	1.94	0.593	4.341E+19	1072.041
699	1.94	0.579	4.064E+19	1096.923
700	1.94	0.563	4.114E+19	1061.81
701	1.94	0.53	4.232E+19	1120.934
702	1.94	0.478	4.113E+19	1484.606
703	1.94	0.389	4.002E+19	1875.335
704	1.94	0.422	4.579E+19	1776.566
705	1.94	0.333	5.093E+19	2116.884
706	1.94	0.281	5.194E+19	2080.526
707	1.94	0.172	5.512E+19	2354.21
708	1.94	0.042	6.091E+19	3031.173
709	1.94	-0.068	6.253E+19	3126.119
710	1.94	0.801	2.01E+18	10.221
711	1.94	0.765	5.06E+18	13.772
712	1.94	0.752	1.427E+19	46.579
713	1.94	0.739	2.433E+19	177.168
714	1.94	0.727	3.933E+19	388.281
715	1.94	0.714	4.023E+19	613.444
716	1.94	0.701	4.087E+19	607.585
717	1.94	0.689	4.082E+19	626.728
718	1.94	0.676	4.549E+19	691.288
719	1.94	0.663	4.183E+19	737.378
720	1.94	0.649	4.212E+19	887.755
721	1.94	0.636	4.056E+19	809.563
722	1.94	0.621	4.461E+19	883.438
723	1.94	0.607	4.233E+19	961.555
724	1.94	0.593	4.409E+19	930.818
725	1.94	0.579	4.304E+19	1063.698
726	1.94	0.563	4.165E+19	1048.805
727	1.94	0.53	4.213E+19	1067.402
728	1.94	0.478	4.155E+19	1593.997
729	1.94	0.389	4.044E+19	1759.707
730	1.94	0.422	4.475E+19	1517.428
731	1.94	0.333	4.903E+19	1940.178
732	1.94	0.281	5.516E+19	2405.147
733	1.94	0.172	6.054E+19	3041.776
734	1.94	0.042	6.398E+19	2958.929
735	1.94	-0.068	6.435E+19	3040.782
736	1.94	0.825	3.55E+18	3.543
737	1.94	0.801	3.41E+18	9.568
738	1.94	0.789	2.73E+18	13.794
739	1.94	0.776	4.3E+18	12.363
740	1.94	0.765	6.47E+18	26.561
741	1.94	0.752	1.592E+19	79.998
742	1.94	0.739	3.443E+19	285.003
743	1.94	0.727	4.297E+19	473.34
744	1.94	0.714	4.556E+19	586.043
745	1.94	0.701	4.52E+19	720.007
746	1.94	0.689	4.633E+19	759.504
747	1.94	0.676	4.856E+19	693.992
748	1.94	0.663	4.702E+19	787.415
749	1.94	0.649	4.595E+19	900.963
750	1.94	0.636	4.422E+19	1000.568
751	1.94	0.621	4.789E+19	853.214
752	1.94	0.607	4.511E+19	1035.429
753	1.94	0.593	4.224E+19	1008.954
754	1.94	0.579	4.253E+19	1031.849
755	1.94	0.563	4.24E+19	1159.921
756	1.94	0.53	4.368E+19	1251.114
757	1.94	0.478	3.956E+19	1462.6
758	1.94	0.389	4.211E+19	1977.878
759	1.94	0.422	4.6E+19	1457.698
760	1.94	0.333	5.229E+19	1955.205
761	1.94	0.281	5.216E+19	2339.601
762	1.94	0.172	5.882E+19	2880.26
763	1.94	0.042	6.36E+19	3104.775
764	1.94	-0.068	5.811E+19	2923.925
765	1.94	0.801	2.18E+18	13.013
766	1.94	0.789	1.98E+18	6.875
767	1.94	0.776	3.19E+18	10.805
768	1.94	0.765	4.04E+18	20.681
769	1.94	0.752	1.494E+19	54.835
770	1.94	0.739	2.942E+19	239.183
771	1.94	0.727	3.771E+19	409.63
772	1.94	0.714	3.882E+19	569.889
773	1.94	0.701	3.843E+19	602.038
774	1.94	0.689	3.868E+19	717.953
775	1.94	0.676	4.303E+19	699.793
776	1.94	0.663	4.074E+19	795.57
777	1.94	0.649	4.133E+19	809.467
778	1.94	0.636	4.072E+19	916.29
779	1.94	0.621	4.478E+19	884.198
780	1.94	0.607	4.093E+19	1065.232
781	1.94	0.593	4.135E+19	937.383
782	1.94	0.579	4.058E+19	1002.927
783	1.94	0.563	4.191E+19	1040.709
784	1.94	0.53	4.31E+19	1173.531
785	1.94	0.478	4.19E+19	1437.248
786	1.94	0.389	4.088E+19	1754.193
787	1.94	0.422	4.556E+19	1515.173
788	1.94	0.333	5.139E+19	2073.115
789	1.94	0.281	5.282E+19	2413.305
790	1.94	0.172	5.528E+19	2959.42
791	1.94	0.042	6.394E+19	3106.974
792	1.94	-0.068	5.995E+19	3007.229
793	1.94	0.789	2.59E+18	9.363
794	1.94	0.765	5.97E+18	19.913
795	1.94	0.752	1.201E+19	37.016
796	1.94	0.739	2.168E+19	167.668
797	1.94	0.727	3.335E+19	355.801
798	1.94	0.714	3.753E+19	486.295
799	1.94	0.701	3.998E+19	612.367
800	1.94	0.689	4.308E+19	751.115
801	1.94	0.676	4.194E+19	754.564
802	1.94	0.663	4.264E+19	789.948
803	1.94	0.649	4.223E+19	880.167
804	1.94	0.636	4.61E+19	1010.621
805	1.94	0.621	4.616E+19	902.208
806	1.94	0.607	4.49E+19	1031.263
807	1.94	0.593	4.297E+19	1052.056
808	1.94	0.579	4.442E+19	1121.614
809	1.94	0.563	4.001E+19	1236.146
810	1.94	0.53	4.566E+19	1144.188
811	1.94	0.478	4.004E+19	1521.694
812	1.94	0.389	3.997E+19	1673.868
813	1.94	0.422	4.578E+19	1561.083
814	1.94	0.333	4.912E+19	1800.779
815	1.94	0.281	5.282E+19	2124.617
816	1.94	0.172	5.586E+19	2515.553
817	1.94	0.042	6.004E+19	3006.716
818	1.94	-0.068	6.252E+19	2925.902
819	1.94	0.825	7.64E+18	20.613
820	1.94	0.813	4.46E+18	26.01
821	1.94	0.801	7.56E+18	42.094
822	1.94	0.789	1.082E+19	78.316
823	1.94	0.776	1.767E+19	187.892
824	1.94	0.765	2.7E+19	179.006
825	1.94	0.752	1.5E+19	83.834
826	1.94	0.739	1.237E+19	93.634
827	1.94	0.727	1.686E+19	140.552
828	1.94	0.714	1.81E+19	279.83
829	1.94	0.701	2.245E+19	380.192
830	1.94	0.689	2.903E+19	526.149
831	1.94	0.676	3.851E+19	673.326
832	1.94	0.663	4.618E+19	750.281
833	1.94	0.649	4.373E+19	749.82
834	1.94	0.636	4.331E+19	798.555
835	1.94	0.621	4.186E+19	809.326
836	1.94	0.607	4.603E+19	808.989
837	1.94	0.593	4.73E+19	961.381
838	1.94	0.579	4.315E+19	1016.721
839	1.94	0.563	4.719E+19	1074.558
840	1.94	0.53	4.39E+19	1090.299
841	1.94	0.478	4.18E+19	1568.68
842	1.94	0.389	4.115E+19	1905.973
843	1.94	0.422	4.757E+19	1449.248
844	1.94	0.333	4.916E+19	1938.085
845	1.94	0.281	5.299E+19	1988.046
846	1.94	0.172	5.965E+19	2592.15
847	1.94	0.042	6.52E+19	2961.568
848	1.94	-0.068	6.44E+19	3843.981
849	1.94	0.813	1.94E+18	11.568
850	1.94	0.789	2.04E+18	14.163
851	1.94	0.776	2.87E+18	149.012
852	1.94	0.765	7.3E+18	28.489
853	1.94	0.752	1.506E+19	67.546
854	1.94	0.739	2.813E+19	231.128
855	1.94	0.727	4.22E+19	499.624
856	1.94	0.714	4.399E+19	609.279
857	1.94	0.701	4.504E+19	680.617
858	1.94	0.689	4.427E+19	727.552
859	1.94	0.676	4.776E+19	737.593
